Date	2025年07月03日木曜日 09時47分49秒
Spectrometers	SR401765
ダーク	使用
リファレンス	使用
積分時間[msec]	300
平均回数	1
ｽﾑｰｼﾞﾝｸﾞ	5
Electrical Dark	USE
ピクセル数	3648
計測モード	反射率
保存開始波長[nm]	598.495
保存終了波長[nm]	1274.802
保存ﾋﾟｯﾁ波長[nm]	全波長

>>>>>>>>>> Data Start <<<<<<<<<<<<
598.495	99.999225
598.713	99.999225
598.931	99.999225
599.148	99.999225
599.366	0.000000
599.584	0.000000
599.802	0.000000
600.020	0.000000
600.238	0.000000
600.455	93.067227
600.673	305.399463
600.891	27.525533
601.109	26.698322
601.326	26.337165
601.544	25.841606
601.762	25.110101
601.979	24.899778
602.197	24.643673
602.415	24.450406
602.632	24.372335
602.850	24.448666
603.067	24.471311
603.285	24.617614
603.502	24.789913
603.720	24.885028
603.938	24.891285
604.155	25.044068
604.372	25.243787
604.590	25.462313
604.807	25.673423
605.025	25.791507
605.242	25.938542
605.460	26.232324
605.677	26.264221
605.894	26.160045
606.112	26.239537
606.329	26.564080
606.546	26.913189
606.764	27.030263
606.981	27.068897
607.198	27.147667
607.415	27.241013
607.633	27.430300
607.850	27.571926
608.067	27.767352
608.284	28.084850
608.501	28.426738
608.718	28.493068
608.935	28.408705
609.153	28.406859
609.370	28.634843
609.587	28.905351
609.804	29.133399
610.021	29.335509
610.238	29.502795
610.455	29.659499
610.672	29.788532
610.889	29.975829
611.106	30.227396
611.323	30.419729
611.540	30.679397
611.756	30.867748
611.973	30.997207
612.190	31.127575
612.407	31.245375
612.624	31.387910
612.841	31.593114
613.057	31.841075
613.274	31.988109
613.491	32.264573
613.708	32.618979
613.925	32.874285
614.141	32.992445
614.358	33.171022
614.575	33.483883
614.791	33.683444
615.008	33.864341
615.225	34.203702
615.441	34.372662
615.658	34.430488
615.874	34.374224
616.091	34.467941
616.307	34.780604
616.524	35.213804
616.740	35.614368
616.957	35.808270
617.173	35.975367
617.390	36.187626
617.606	36.301170
617.823	36.465470
618.039	36.529450
618.256	36.768549
618.472	37.011278
618.688	37.191408
618.905	37.400898
619.121	37.539341
619.337	37.797732
619.554	38.140807
619.770	38.441819
619.986	38.725433
620.202	38.918396
620.419	39.292166
620.635	39.536407
620.851	39.855116
621.067	40.222921
621.283	40.411514
621.499	40.507253
621.716	40.667690
621.932	40.793211
622.148	40.856142
622.364	40.927718
622.580	41.168124
622.796	41.399942
623.012	41.708208
623.228	41.939415
623.444	42.160316
623.660	42.427416
623.876	42.800294
624.092	42.988894
624.308	43.233421
624.524	43.616772
624.740	43.904586
624.955	44.138370
625.171	44.430257
625.387	44.720402
625.603	44.860789
625.819	44.886202
626.034	44.964716
626.250	45.080734
626.466	45.222935
626.682	45.415863
626.897	45.595895
627.113	45.856887
627.329	46.114427
627.544	46.222644
627.760	46.222422
627.976	46.426137
628.191	46.757087
628.407	46.984430
628.623	47.243642
628.838	47.598115
629.054	47.825422
629.269	47.970303
629.485	48.109342
629.700	48.348888
629.916	48.652719
630.131	48.991582
630.347	49.134592
630.562	49.082425
630.777	49.151173
630.993	49.240273
631.208	49.477378
631.424	49.739433
631.639	49.956495
631.854	50.196571
632.070	50.336480
632.285	50.546745
632.500	50.736100
632.715	51.001364
632.931	51.375306
633.146	51.686530
633.361	51.927428
633.576	52.041693
633.791	52.042434
634.007	52.156976
634.222	52.254105
634.437	52.434392
634.652	52.474473
634.867	52.605557
635.082	52.798237
635.297	53.043998
635.512	53.323062
635.727	53.649746
635.942	53.998072
636.157	54.524605
636.372	54.907464
636.587	55.098260
636.802	55.184454
637.017	55.296073
637.232	55.409229
637.447	55.540315
637.662	55.597347
637.876	55.611308
638.091	55.459236
638.306	55.379112
638.521	55.252242
638.736	55.116751
638.951	55.264077
639.165	55.579523
639.380	55.839035
639.595	55.887965
639.809	56.021366
640.024	56.090850
640.239	56.203323
640.453	56.625050
640.668	56.937840
640.883	57.163301
641.097	57.416146
641.312	57.582293
641.526	57.599977
641.741	57.739836
641.955	58.131432
642.170	58.342167
642.384	58.620495
642.599	58.980990
642.813	59.125718
643.028	59.222082
643.242	59.304328
643.457	59.469875
643.671	59.705588
643.885	59.889209
644.100	59.956909
644.314	59.920629
644.528	60.039642
644.743	60.330285
644.957	60.526131
645.171	60.715720
645.386	60.783886
645.600	60.994201
645.814	61.171200
646.028	61.302122
646.242	61.452532
646.457	61.714049
646.671	62.048249
646.885	62.282321
647.099	62.285498
647.313	62.295790
647.527	62.360929
647.741	62.584174
647.955	62.604679
648.169	62.550082
648.383	62.519026
648.597	62.601646
648.811	62.639106
649.025	62.691311
649.239	62.635412
649.453	62.610948
649.667	62.642959
649.881	62.671604
650.095	62.723363
650.309	62.897517
650.523	63.121435
650.737	63.210561
650.950	63.334694
651.164	63.477155
651.378	63.616116
651.592	63.822878
651.805	63.977182
652.019	64.098927
652.233	64.178540
652.447	64.311221
652.660	64.472151
652.874	64.520806
653.088	64.742066
653.301	64.904383
653.515	65.021514
653.728	65.031666
653.942	65.053902
654.156	65.182149
654.369	65.317284
654.583	65.510486
654.796	65.612352
655.010	65.571359
655.223	65.681692
655.437	65.780121
655.650	65.933538
655.863	66.320444
656.077	66.544027
656.290	66.737310
656.504	67.007487
656.717	67.165784
656.930	67.315125
657.144	67.613832
657.357	67.873834
657.570	68.070172
657.783	68.158371
657.997	68.148638
658.210	67.965155
658.423	68.035291
658.636	68.166274
658.849	68.120911
659.063	68.161292
659.276	68.097672
659.489	67.939484
659.702	67.943030
659.915	67.956232
660.128	68.034223
660.341	68.142783
660.554	68.382233
660.767	68.545225
660.980	68.617731
661.193	68.737121
661.406	68.837846
661.619	69.078290
661.832	69.228282
662.045	69.464267
662.258	69.822786
662.471	70.092935
662.684	70.288317
662.897	70.452449
663.110	70.408778
663.322	70.340825
663.535	70.237639
663.748	70.264326
663.961	70.282173
664.174	70.296920
664.386	70.183416
664.599	70.093310
664.812	70.001378
665.024	69.884702
665.237	69.626596
665.450	69.560046
665.662	69.659288
665.875	69.946438
666.088	70.201512
666.300	70.233172
666.513	70.376621
666.725	70.575094
666.938	70.715229
667.150	70.874426
667.363	71.001955
667.575	71.189644
667.788	71.504661
668.000	71.732515
668.213	71.694851
668.425	71.610081
668.638	71.688519
668.850	71.695115
669.062	71.799964
669.275	71.883700
669.487	71.907310
669.699	71.964033
669.912	72.045198
670.124	72.072096
670.336	72.193994
670.548	72.376986
670.761	72.413954
670.973	72.430033
671.185	72.639832
671.397	72.638093
671.609	72.452572
671.822	72.354030
672.034	72.350478
672.246	72.375855
672.458	72.490309
672.670	72.428498
672.882	72.391320
673.094	72.428317
673.306	72.404272
673.518	72.303470
673.730	72.369478
673.942	72.674734
674.154	72.974862
674.366	73.212813
674.578	73.502859
674.790	73.625549
675.002	73.624143
675.214	73.626531
675.425	73.797222
675.637	73.956080
675.849	73.905613
676.061	73.889365
676.273	73.830552
676.484	73.825542
676.696	73.794586
676.908	73.582478
677.120	73.529012
677.331	73.619849
677.543	73.739786
677.755	73.618665
677.966	73.569733
678.178	73.655504
678.389	73.622454
678.601	73.739111
678.813	73.722503
679.024	73.673428
679.236	73.752742
679.447	73.797492
679.659	74.024211
679.870	74.227760
680.082	74.413355
680.293	74.604079
680.505	74.689414
680.716	74.565779
680.927	74.309498
681.139	74.345883
681.350	74.435037
681.562	74.367703
681.773	74.228266
681.984	74.031362
682.196	73.809193
682.407	73.818629
682.618	73.931928
682.829	74.055790
683.041	74.426914
683.252	74.752038
683.463	74.837371
683.674	74.979714
683.885	75.312928
684.097	75.583026
684.308	75.697458
684.519	75.847300
684.730	75.868170
684.941	75.781275
685.152	75.736673
685.363	75.634913
685.574	75.581586
685.785	75.561171
685.996	75.416845
686.207	75.284586
686.418	75.214518
686.629	75.382813
686.840	75.591086
687.051	75.699990
687.262	75.716158
687.473	75.791705
687.684	75.913153
687.894	76.084663
688.105	76.268525
688.316	76.518123
688.527	76.542033
688.738	76.483842
688.948	76.213056
689.159	75.903610
689.370	75.661611
689.580	75.597019
689.791	75.653350
690.002	75.734103
690.212	75.727077
690.423	75.599234
690.634	75.322450
690.844	75.252887
691.055	75.334285
691.266	75.598472
691.476	75.838304
691.687	76.000493
691.897	76.041145
692.108	75.962191
692.318	75.945045
692.529	75.983393
692.739	76.045703
692.949	76.046327
693.160	75.902515
693.370	75.814040
693.581	75.772844
693.791	75.829528
694.001	76.014901
694.212	76.216730
694.422	76.361275
694.632	76.378473
694.843	76.391204
695.053	76.519707
695.263	76.809289
695.473	77.143410
695.683	77.337310
695.894	77.412818
696.104	77.457888
696.314	77.407861
696.524	77.388703
696.734	77.553954
696.944	77.690924
697.154	77.693673
697.365	77.398618
697.575	77.049666
697.785	76.766102
697.995	76.540536
698.205	76.370568
698.415	76.236196
698.625	76.230494
698.834	76.211543
699.044	76.116707
699.254	76.178619
699.464	76.297803
699.674	76.471949
699.884	76.722516
700.094	76.949773
700.304	77.134011
700.513	77.327959
700.723	77.450108
700.933	77.362483
701.143	77.256454
701.353	77.091592
701.562	76.887362
701.772	76.760455
701.982	76.778011
702.191	76.876613
702.401	76.979056
702.611	77.055801
702.820	77.152355
703.030	77.326438
703.239	77.615019
703.449	77.813968
703.659	77.901248
703.868	77.798098
704.078	77.771916
704.287	77.886476
704.497	77.957770
704.706	77.988536
704.916	78.125971
705.125	78.140964
705.334	77.899459
705.544	77.548768
705.753	77.265870
705.962	77.087821
706.172	76.963431
706.381	76.727940
706.590	76.594168
706.800	76.528390
707.009	76.443393
707.218	76.149509
707.428	75.831523
707.637	75.741469
707.846	75.776402
708.055	75.812712
708.264	75.836070
708.474	76.080259
708.683	76.371281
708.892	76.467620
709.101	76.515519
709.310	76.430210
709.519	76.514016
709.728	76.688580
709.937	76.822760
710.146	76.967526
710.355	77.106975
710.564	77.264867
710.773	77.249062
710.982	77.305808
711.191	77.428562
711.400	77.540941
711.609	77.732660
711.818	77.733586
712.027	77.686662
712.235	77.786303
712.444	77.902108
712.653	77.904348
712.862	77.782709
713.071	77.704333
713.279	77.551603
713.488	77.361601
713.697	77.180205
713.906	77.044350
714.114	77.171869
714.323	77.270729
714.532	77.145580
714.740	76.913444
714.949	76.849743
715.157	76.920382
715.366	76.977562
715.575	76.967011
715.783	76.944807
715.992	76.914582
716.200	76.883473
716.409	76.724045
716.617	76.616641
716.826	76.701284
717.034	76.899991
717.242	77.090915
717.451	77.237152
717.659	77.257199
717.868	77.279353
718.076	77.498661
718.284	77.699720
718.493	77.848915
718.701	77.789863
718.909	77.694954
719.118	77.513644
719.326	77.156456
719.534	76.833777
719.742	76.662385
719.951	76.644566
720.159	76.713892
720.367	76.664492
720.575	76.561349
720.783	76.431739
720.991	76.530070
721.199	76.625436
721.408	76.687988
721.616	76.946871
721.824	77.083471
722.032	77.080064
722.240	76.927221
722.448	76.736653
722.656	76.493618
722.864	76.336894
723.072	76.337857
723.280	76.220875
723.487	76.257890
723.695	76.357394
723.903	76.305279
724.111	76.253642
724.319	76.264293
724.527	76.307538
724.735	76.123778
724.942	75.967164
725.150	75.858100
725.358	75.766575
725.566	75.806920
725.773	75.816158
725.981	75.867337
726.189	76.047436
726.396	76.196907
726.604	76.185889
726.812	76.119328
727.019	76.230369
727.227	76.271550
727.435	76.356468
727.642	76.242029
727.850	76.018479
728.057	75.793525
728.265	75.509783
728.472	75.107057
728.680	74.877273
728.887	74.786079
729.095	74.845914
729.302	74.878591
729.509	74.886504
729.717	74.765289
729.924	74.782352
730.132	74.908253
730.339	74.949142
730.546	74.978164
730.753	75.230351
730.961	75.510722
731.168	75.658281
731.375	75.724408
731.583	75.735167
731.790	75.752217
731.997	75.897652
732.204	75.976954
732.411	76.016501
732.618	75.948682
732.826	75.923528
733.033	75.806485
733.240	75.548182
733.447	75.287366
733.654	74.937491
733.861	74.917112
734.068	74.981226
734.275	74.881922
734.482	74.779348
734.689	74.648265
734.896	74.615741
735.103	74.405636
735.310	74.115742
735.517	73.818451
735.724	73.678719
735.931	73.767636
736.137	73.782635
736.344	73.746043
736.551	73.741747
736.758	73.645781
736.965	73.571147
737.171	73.439907
737.378	73.325207
737.585	73.290673
737.792	73.511315
737.998	73.701339
738.205	73.824779
738.412	73.775875
738.618	73.728948
738.825	73.658854
739.032	73.695660
739.238	73.563606
739.445	73.381776
739.651	73.310269
739.858	73.363798
740.064	73.393956
740.271	73.505352
740.477	73.496772
740.684	73.316798
740.890	73.196763
741.097	73.178652
741.303	73.140116
741.510	73.184895
741.716	73.334532
741.922	73.534453
742.129	73.636283
742.335	73.683290
742.541	73.640031
742.748	73.558142
742.954	73.583846
743.160	73.508715
743.366	73.360081
743.573	73.115855
743.779	72.916730
743.985	72.778844
744.191	72.565113
744.397	72.296127
744.604	71.944467
744.810	71.635505
745.016	71.501893
745.222	71.494884
745.428	71.350818
745.634	71.198986
745.840	71.238465
746.046	71.339589
746.252	71.394141
746.458	71.342569
746.664	71.351711
746.870	71.388019
747.076	71.318616
747.282	71.409699
747.488	71.427075
747.694	71.583857
747.900	71.649785
748.105	71.637544
748.311	71.710797
748.517	71.624035
748.723	71.601182
748.929	71.504073
749.134	71.446594
749.340	71.456968
749.546	71.209383
749.752	70.942177
749.957	70.739350
750.163	70.770231
750.369	70.909775
750.574	70.884408
750.780	70.807474
750.985	70.801950
751.191	70.933029
751.397	70.988150
751.602	70.883431
751.808	70.877841
752.013	70.872507
752.219	70.755198
752.424	70.597989
752.630	70.405821
752.835	70.210356
753.041	70.207513
753.246	70.185819
753.451	70.084688
753.657	69.998709
753.862	70.035499
754.067	70.064704
754.273	70.203771
754.478	70.240438
754.683	70.234484
754.889	70.004709
755.094	69.662055
755.299	69.393003
755.504	69.154834
755.710	68.984830
755.915	68.741798
756.120	68.455393
756.325	68.234751
756.530	68.096865
756.735	68.159323
756.940	68.103931
757.146	68.179141
757.351	68.236924
757.556	68.241263
757.761	68.194607
757.966	68.110290
758.171	68.032340
758.376	67.962894
758.581	67.793084
758.786	67.574935
758.990	67.258623
759.195	67.018062
759.400	66.862850
759.605	66.770513
759.810	66.640281
760.015	66.595970
760.220	66.475501
760.424	66.366926
760.629	66.235158
760.834	66.062354
761.039	65.822431
761.244	65.685345
761.448	65.479321
761.653	65.413470
761.858	65.592234
762.062	65.690328
762.267	65.594758
762.472	65.506282
762.676	65.509033
762.881	65.390658
763.085	65.233377
763.290	65.155975
763.494	64.954810
763.699	64.832967
763.903	64.411188
764.108	63.924717
764.312	63.549423
764.517	63.351320
764.721	63.060668
764.926	62.715268
765.130	62.663141
765.335	62.738430
765.539	62.744642
765.743	62.684506
765.948	62.591166
766.152	62.662874
766.356	62.589395
766.560	62.585886
766.765	62.581798
766.969	62.567974
767.173	62.513156
767.377	62.461657
767.582	62.334958
767.786	62.199413
767.990	62.237478
768.194	62.144641
768.398	61.976213
768.602	61.886389
768.806	61.851148
769.010	61.731020
769.215	61.500478
769.419	61.304742
769.623	61.122647
769.827	60.888425
770.031	60.579663
770.234	60.341186
770.438	60.312862
770.642	60.254411
770.846	60.165268
771.050	59.935164
771.254	59.622548
771.458	59.592475
771.662	59.714213
771.866	59.601651
772.069	59.579636
772.273	59.605286
772.477	59.316314
772.681	58.994990
772.885	58.710268
773.088	58.415684
773.292	58.156522
773.496	57.953345
773.699	57.691502
773.903	57.392008
774.107	57.127058
774.310	56.722479
774.514	56.144116
774.717	55.876970
774.921	55.590451
775.124	55.289787
775.328	55.031566
775.531	54.732297
775.735	54.554550
775.938	54.395828
776.142	54.150208
776.345	53.914274
776.549	53.913164
776.752	54.195946
776.956	54.400649
777.159	54.506473
777.362	54.544597
777.566	54.581453
777.769	54.574100
777.972	54.369823
778.176	54.192012
778.379	54.048507
778.582	53.858628
778.785	53.608702
778.989	53.293135
779.192	52.924349
779.395	52.589527
779.598	52.260345
779.801	51.917815
780.004	51.564330
780.207	51.320262
780.411	50.978357
780.614	50.538540
780.817	50.209940
781.020	49.853613
781.223	49.444972
781.426	49.130611
781.629	48.912409
781.832	48.740981
782.035	48.604119
782.238	48.487397
782.440	48.284762
782.643	48.090600
782.846	48.009745
783.049	47.915544
783.252	47.785652
783.455	47.540285
783.658	47.194138
783.860	46.909891
784.063	46.654397
784.266	46.302471
784.469	45.997113
784.671	45.829748
784.874	45.586113
785.077	45.268654
785.279	44.908106
785.482	44.602157
785.685	44.368055
785.887	44.197821
786.090	43.977843
786.293	43.742651
786.495	43.570525
786.698	43.517336
786.900	43.275417
787.103	42.984464
787.305	42.713073
787.508	42.431210
787.710	42.127905
787.913	41.901623
788.115	41.607093
788.317	41.162678
788.520	40.652193
788.722	40.135947
788.924	39.489402
789.127	39.038959
789.329	38.637136
789.531	38.216782
789.734	37.956947
789.936	37.769967
790.138	37.607225
790.340	37.495389
790.543	37.394467
790.745	37.294204
790.947	37.265474
791.149	37.202207
791.351	37.013925
791.553	36.808842
791.756	36.635171
791.958	36.504249
792.160	36.248477
792.362	35.867080
792.564	35.322355
792.766	34.820482
792.968	34.409188
793.170	33.817333
793.372	33.194455
793.574	32.657363
793.776	32.291283
793.978	31.923069
794.180	31.371626
794.381	30.784332
794.583	30.332668
794.785	30.079105
794.987	29.768503
795.189	29.514246
795.391	29.330814
795.592	29.111012
795.794	28.850544
795.996	28.592157
796.198	28.321577
796.399	28.089409
796.601	27.916151
796.803	27.575029
797.004	27.156730
797.206	26.924232
797.407	26.586806
797.609	26.283337
797.811	26.026938
798.012	25.818284
798.214	25.448100
798.415	25.049339
798.617	24.761074
798.818	24.462272
799.020	24.226190
799.221	23.975891
799.423	23.545483
799.624	23.166142
799.826	22.814662
800.027	22.444282
800.228	21.979329
800.430	21.744044
800.631	21.556986
800.832	21.119732
801.034	20.799033
801.235	20.545919
801.436	20.363926
801.637	20.264751
801.839	20.175573
802.040	19.960158
802.241	19.760699
802.442	19.588382
802.643	19.284120
802.844	18.945860
803.046	18.756591
803.247	18.393626
803.448	18.075433
803.649	17.638807
803.850	17.272516
804.051	16.876545
804.252	16.532240
804.453	16.203716
804.654	15.939578
804.855	15.680221
805.056	15.432016
805.257	15.160791
805.458	14.928001
805.659	14.727520
805.859	14.568786
806.060	14.367620
806.261	14.172253
806.462	13.931840
806.663	13.756889
806.864	13.534723
807.064	13.299027
807.265	13.040685
807.466	12.807806
807.667	12.715766
807.867	12.495192
808.068	12.265773
808.269	12.019137
808.469	11.766210
808.670	11.637233
808.870	11.394784
809.071	11.279142
809.272	11.153187
809.472	11.033879
809.673	10.890020
809.873	10.634609
810.074	10.370396
810.274	10.239809
810.475	10.117371
810.675	9.982626
810.876	9.834262
811.076	9.836437
811.276	9.807431
811.477	9.733663
811.677	9.637434
811.878	9.581094
812.078	9.540264
812.278	9.493375
812.479	9.396256
812.679	9.337728
812.879	9.349075
813.079	9.259826
813.280	9.119718
813.480	8.963444
813.680	8.790563
813.880	8.756483
814.080	8.720302
814.280	8.650452
814.480	8.679559
814.681	8.660711
814.881	8.568500
815.081	8.434851
815.281	8.450560
815.481	8.395234
815.681	8.244091
815.881	8.238583
816.081	8.120160
816.281	8.102463
816.481	8.156253
816.681	8.162085
816.880	8.182408
817.080	8.178820
817.280	8.225345
817.480	8.328261
817.680	8.337746
817.880	8.402758
818.080	8.428924
818.279	8.542018
818.479	8.505854
818.679	8.565062
818.879	8.738716
819.078	8.781295
819.278	8.849456
819.478	8.887177
819.677	8.844253
819.877	8.992622
820.077	9.151489
820.276	9.367714
820.476	9.466604
820.675	9.504220
820.875	9.461697
821.074	9.490654
821.274	9.681557
821.473	9.839912
821.673	9.905246
821.872	10.049334
822.072	10.121895
822.271	10.135774
822.471	10.222637
822.670	10.351609
822.869	10.620058
823.069	10.955836
823.268	11.032198
823.467	11.093905
823.667	11.190555
823.866	11.369098
824.065	11.562982
824.265	11.799290
824.464	12.108702
824.663	12.319370
824.862	12.506878
825.061	12.687678
825.261	12.703730
825.460	12.807482
825.659	12.990678
825.858	13.208461
826.057	13.473071
826.256	13.685968
826.455	13.904314
826.654	14.159491
826.853	14.318545
827.052	14.602346
827.251	15.021952
827.450	15.398107
827.649	15.703849
827.848	15.903651
828.047	16.142254
828.246	16.301613
828.445	16.343598
828.644	16.496549
828.843	16.634313
829.041	16.828228
829.240	17.008670
829.439	17.001049
829.638	17.139001
829.836	17.335765
830.035	17.528652
830.234	17.727456
830.433	18.007629
830.631	18.378103
830.830	18.686172
831.029	18.853788
831.227	19.107959
831.426	19.426285
831.624	19.706937
831.823	19.903709
832.022	20.143619
832.220	20.249510
832.419	20.546780
832.617	20.917351
832.816	21.011968
833.014	21.093450
833.213	21.407527
833.411	21.683319
833.609	21.819359
833.808	22.188960
834.006	22.602082
834.205	22.857733
834.403	23.430725
834.601	23.772289
834.800	23.833294
834.998	24.188659
835.196	24.445775
835.394	24.570884
835.593	24.752770
835.791	24.983855
835.989	25.040248
836.187	25.266775
836.385	25.517349
836.584	25.486501
836.782	25.540085
836.980	25.706996
837.178	25.905802
837.376	26.137605
837.574	26.440681
837.772	26.871099
837.970	27.109736
838.168	27.325951
838.366	27.457397
838.564	27.795117
838.762	28.261011
838.960	28.671158
839.158	29.167810
839.356	29.527466
839.554	29.796917
839.752	30.064078
839.949	30.143248
840.147	30.446542
840.345	30.904624
840.543	31.203353
840.741	31.326164
840.938	31.604358
841.136	31.850137
841.334	32.107170
841.532	32.391932
841.729	32.699638
841.927	33.013811
842.125	33.301398
842.322	33.421529
842.520	33.494228
842.718	33.783794
842.915	34.176316
843.113	34.420938
843.310	34.757133
843.508	34.949373
843.705	35.167115
843.903	35.534321
844.100	35.625663
844.298	35.641253
844.495	36.016356
844.693	36.360280
844.890	36.453895
845.087	36.571479
845.285	36.773044
845.482	36.950872
845.679	37.125791
845.877	37.206627
846.074	37.312474
846.271	37.589935
846.469	37.961077
846.666	38.077545
846.863	38.248897
847.060	38.633907
847.257	38.900650
847.455	39.114432
847.652	39.255524
847.849	39.396129
848.046	39.511877
848.243	39.577440
848.440	39.874614
848.637	40.186953
848.834	40.437869
849.031	40.756677
849.228	40.949317
849.425	41.137444
849.622	41.212205
849.819	41.338533
850.016	41.677028
850.213	41.987567
850.410	42.224094
850.607	42.228309
850.804	42.247720
851.001	42.485943
851.198	42.601891
851.394	42.669106
851.591	42.848726
851.788	43.207134
851.985	43.543990
852.181	43.692716
852.378	43.698459
852.575	43.796046
852.772	43.991222
852.968	44.130155
853.165	44.189561
853.362	44.328122
853.558	44.408618
853.755	44.459827
853.951	44.571690
854.148	44.779927
854.345	44.908929
854.541	45.198080
854.738	45.602010
854.934	46.006404
855.131	46.301208
855.327	46.531953
855.523	46.706774
855.720	46.832021
855.916	47.080453
856.113	47.172036
856.309	47.182950
856.505	47.359532
856.702	47.678160
856.898	47.753981
857.094	47.685150
857.291	47.802417
857.487	47.984004
857.683	48.084736
857.879	48.400251
858.076	48.704243
858.272	48.879461
858.468	48.959015
858.664	48.980951
858.860	48.803784
859.056	48.845653
859.253	49.163001
859.449	49.535510
859.645	49.780037
859.841	50.173160
860.037	50.274663
860.233	50.247697
860.429	50.575222
860.625	50.903835
860.821	51.165404
861.017	51.717682
861.213	52.194557
861.409	52.491436
861.604	52.522872
861.800	52.557164
861.996	52.405104
862.192	52.511275
862.388	52.742292
862.584	52.431191
862.779	52.205149
862.975	52.247518
863.171	52.175047
863.367	52.027502
863.562	51.734897
863.758	51.617248
863.954	51.534777
864.149	51.740443
864.345	51.940443
864.541	52.043159
864.736	52.511931
864.932	52.963541
865.127	53.187321
865.323	53.392550
865.518	53.605569
865.714	54.040614
865.910	54.512264
866.105	55.051273
866.300	55.166720
866.496	55.293074
866.691	55.473891
866.887	55.577708
867.082	55.751948
867.277	56.078663
867.473	56.449630
867.668	56.642838
867.864	56.752847
868.059	56.818160
868.254	56.543657
868.449	56.700920
868.645	56.888808
868.840	56.945073
869.035	57.079863
869.230	57.186359
869.425	57.121027
869.621	57.069636
869.816	57.283223
870.011	57.248007
870.206	57.156457
870.401	57.535241
870.596	57.681992
870.791	57.672432
870.986	57.642220
871.181	57.368190
871.376	57.156843
871.571	57.272344
871.766	57.427807
871.961	57.555265
872.156	57.680837
872.351	57.796586
872.546	57.731514
872.741	57.574169
872.936	57.540535
873.130	57.871885
873.325	58.364129
873.520	58.608543
873.715	58.866480
873.910	58.871791
874.104	58.832632
874.299	58.937477
874.494	59.014547
874.688	59.365823
874.883	59.830070
875.078	60.278255
875.272	60.330417
875.467	60.202623
875.662	60.201037
875.856	60.144840
876.051	60.131652
876.245	60.042993
876.440	60.278643
876.634	60.577510
876.829	60.602690
877.023	60.467236
877.218	60.276622
877.412	60.156720
877.607	60.413558
877.801	60.847027
877.995	60.906700
878.190	60.952982
878.384	61.250229
878.578	61.390886
878.773	61.617222
878.967	61.825819
879.161	61.987892
879.356	62.143738
879.550	62.451116
879.744	62.561227
879.938	62.377599
880.133	62.572849
880.327	62.800407
880.521	62.848071
880.715	62.598160
880.909	62.224446
881.103	61.981482
881.297	62.200568
881.491	62.479064
881.685	62.524008
881.880	62.588346
882.073	62.983532
882.267	62.794794
882.461	62.506482
882.655	62.371725
882.849	62.576571
883.043	62.774829
883.237	62.818479
883.431	62.618191
883.625	62.348004
883.819	62.458791
884.013	62.593756
884.206	62.512858
884.400	62.755424
884.594	63.070373
884.788	63.253038
884.982	63.386780
885.175	63.653671
885.369	64.013505
885.563	64.304692
885.756	64.427612
885.950	64.366882
886.144	64.351325
886.337	64.511120
886.531	64.503339
886.724	64.531112
886.918	64.785758
887.112	64.841195
887.305	64.717208
887.499	64.686342
887.692	64.781795
887.885	65.323072
888.079	65.548153
888.272	65.747265
888.466	65.886901
888.659	65.918149
888.853	66.061679
889.046	66.164214
889.239	66.157686
889.433	66.204275
889.626	66.001955
889.819	65.657789
890.013	65.297492
890.206	65.304529
890.399	65.152050
890.592	64.646578
890.785	64.473791
890.979	64.339164
891.172	64.066515
891.365	64.199559
891.558	64.399600
891.751	64.633723
891.944	64.743290
892.137	64.835501
892.330	64.762579
892.524	64.616804
892.717	65.028053
892.910	65.266385
893.103	65.660511
893.296	66.182899
893.488	66.254643
893.681	66.170668
893.874	66.211297
894.067	66.428348
894.260	66.603447
894.453	66.923595
894.646	67.409406
894.839	67.496048
895.031	67.869706
895.224	67.888686
895.417	67.677482
895.610	67.900984
895.802	68.300838
895.995	68.896378
896.188	69.003825
896.381	68.837579
896.573	68.724002
896.766	68.826481
896.958	69.151808
897.151	69.328653
897.344	69.713525
897.536	70.227530
897.729	70.356056
897.921	70.080339
898.114	69.271087
898.306	69.379226
898.499	69.286536
898.691	68.964020
898.884	68.727763
899.076	68.477546
899.269	68.276388
899.461	68.289439
899.653	68.353588
899.846	68.341219
900.038	68.302189
900.230	68.576304
900.423	68.417421
900.615	68.848791
900.807	69.081566
901.000	68.810727
901.192	68.582339
901.384	68.310665
901.576	67.565484
901.768	66.853640
901.961	66.748771
902.153	66.943083
902.345	67.110603
902.537	67.340862
902.729	67.527740
902.921	67.741330
903.113	68.129389
903.305	68.582004
903.497	68.868027
903.689	69.396750
903.881	69.727214
904.073	70.019625
904.265	70.131531
904.457	70.268968
904.649	70.407960
904.841	70.436370
905.033	70.531077
905.224	70.562556
905.416	70.667459
905.608	70.849145
905.800	70.794088
905.992	71.022756
906.183	71.039173
906.375	71.384113
906.567	71.580483
906.759	71.386045
906.950	71.243505
907.142	71.458623
907.334	71.336696
907.525	70.819280
907.717	70.639652
907.909	70.664645
908.100	70.434387
908.292	70.299398
908.483	70.107863
908.675	69.948959
908.866	69.987387
909.058	69.903782
909.249	69.628159
909.441	70.093585
909.632	70.744714
909.824	71.012983
910.015	71.097278
910.206	71.245526
910.398	71.180178
910.589	70.966133
910.780	70.879719
910.972	71.165576
911.163	71.124784
911.354	71.024348
911.546	70.892875
911.737	70.924384
911.928	70.903785
912.119	70.766661
912.310	70.549274
912.502	70.334787
912.693	70.615697
912.884	70.818840
913.075	70.660919
913.266	70.868565
913.457	71.454645
913.648	71.448595
913.839	70.993062
914.030	70.592235
914.221	70.607599
914.412	70.850985
914.603	71.250218
914.794	71.192785
914.985	71.192725
915.176	71.560572
915.367	71.788769
915.558	71.658721
915.749	71.715111
915.940	72.019899
916.130	72.405011
916.321	72.827408
916.512	72.873956
916.703	72.522768
916.893	72.632929
917.084	72.557186
917.275	72.142367
917.466	71.956587
917.656	71.636047
917.847	71.551108
918.038	71.222917
918.228	70.822799
918.419	70.452992
918.609	70.149974
918.800	70.133943
918.990	69.767495
919.181	69.856187
919.372	70.115246
919.562	70.253235
919.753	70.596485
919.943	70.856776
920.133	71.509760
920.324	72.448034
920.514	73.118744
920.705	73.844698
920.895	74.178525
921.085	74.486701
921.276	74.669892
921.466	74.543510
921.656	74.124998
921.847	73.758281
922.037	73.403902
922.227	72.996969
922.417	72.773808
922.608	72.562037
922.798	72.250374
922.988	72.458614
923.178	72.520405
923.368	72.577791
923.558	72.833555
923.748	73.113626
923.939	73.366495
924.129	73.295385
924.319	73.529258
924.509	73.670654
924.699	74.158476
924.889	74.561971
925.079	74.453212
925.269	74.236342
925.459	73.965273
925.648	74.043402
925.838	74.357935
926.028	74.504040
926.218	74.938751
926.408	74.852829
926.598	74.551178
926.788	74.086179
926.977	73.727798
927.167	73.488884
927.357	73.639439
927.547	73.828847
927.736	73.909313
927.926	73.901095
928.116	73.762685
928.305	73.673729
928.495	74.209631
928.685	74.566905
928.874	74.419259
929.064	74.075705
929.253	74.353189
929.443	74.596546
929.633	74.850307
929.822	74.630676
930.012	74.369894
930.201	74.611092
930.391	74.613726
930.580	74.264448
930.769	74.039696
930.959	74.435379
931.148	74.927611
931.338	74.996692
931.527	74.662197
931.716	74.102272
931.906	74.059986
932.095	74.246705
932.284	74.134447
932.474	74.194172
932.663	74.452819
932.852	74.494516
933.041	73.760664
933.230	73.617433
933.420	73.558818
933.609	73.668368
933.798	73.910457
933.987	73.616721
934.176	73.346492
934.365	73.485650
934.554	73.769391
934.743	73.716965
934.932	73.567535
935.121	73.997436
935.310	74.142512
935.499	73.912081
935.688	74.136500
935.877	74.730219
936.066	75.344365
936.255	75.984103
936.444	76.210288
936.633	76.298766
936.822	76.464126
937.010	76.907666
937.199	76.952208
937.388	77.153832
937.577	77.646477
937.766	77.406818
937.954	76.261883
938.143	76.054316
938.332	75.611529
938.520	75.254417
938.709	74.897529
938.898	74.677166
939.086	74.590053
939.275	74.692123
939.464	74.764138
939.652	74.524148
939.841	74.548855
940.029	75.549188
940.218	75.876812
940.406	76.046382
940.595	76.175518
940.783	76.312694
940.972	76.162549
941.160	76.032721
941.349	75.800774
941.537	75.201283
941.725	75.357137
941.914	75.331832
942.102	74.377595
942.290	73.787979
942.479	73.614536
942.667	73.804107
942.855	74.140765
943.043	74.248889
943.232	74.252629
943.420	74.749293
943.608	75.537173
943.796	75.526079
943.984	75.715315
944.172	76.407468
944.361	76.627940
944.549	76.632099
944.737	76.003809
944.925	75.316258
945.113	75.188168
945.301	75.085992
945.489	74.862702
945.677	74.356543
945.865	74.552005
946.053	74.591538
946.241	74.697602
946.429	75.009683
946.617	75.026315
946.805	75.496178
946.992	75.986175
947.180	75.939473
947.368	76.201875
947.556	76.165846
947.744	76.258457
947.931	76.181925
948.119	76.043238
948.307	75.593672
948.495	75.461458
948.682	75.475520
948.870	75.316897
949.058	75.391349
949.245	75.368179
949.433	75.169124
949.621	75.155142
949.808	75.207192
949.996	74.986978
950.183	75.188098
950.371	75.281651
950.558	74.831840
950.746	75.238673
950.933	75.463134
951.121	75.197597
951.308	75.653420
951.496	75.968206
951.683	76.266661
951.870	76.310273
952.058	76.325981
952.245	76.341851
952.433	76.329205
952.620	76.432071
952.807	75.932827
952.994	75.906132
953.182	76.000663
953.369	75.744538
953.556	75.306695
953.743	74.596712
953.931	74.254910
954.118	74.635214
954.305	74.930983
954.492	75.187109
954.679	75.588080
954.866	75.932527
955.053	75.550982
955.240	75.376945
955.427	75.505514
955.615	75.851735
955.802	76.532496
955.989	77.144201
956.175	77.228297
956.362	76.984944
956.549	76.945107
956.736	76.977569
956.923	77.205130
957.110	77.591030
957.297	77.720850
957.484	77.740672
957.671	77.669257
957.857	77.349268
958.044	77.087721
958.231	77.088626
958.418	76.648145
958.604	76.575878
958.791	76.747372
958.978	76.484846
959.165	76.668589
959.351	76.806984
959.538	76.940100
959.724	77.069769
959.911	77.437884
960.098	77.987912
960.284	77.919722
960.471	78.242814
960.657	78.595467
960.844	78.450212
961.030	78.551149
961.217	78.590555
961.403	78.696383
961.590	78.543950
961.776	78.478105
961.963	78.370368
962.149	78.068814
962.335	78.308756
962.522	78.881804
962.708	79.033595
962.894	78.804585
963.081	78.633451
963.267	78.343580
963.453	78.305299
963.639	78.577659
963.826	78.861431
964.012	78.419655
964.198	77.732604
964.384	76.977719
964.570	76.571256
964.756	75.706603
964.943	75.897288
965.129	75.826199
965.315	76.122252
965.501	76.373115
965.687	76.237201
965.873	75.861792
966.059	76.263235
966.245	77.269309
966.431	77.572115
966.617	78.098078
966.803	78.912317
966.989	78.784454
967.174	78.423565
967.360	78.226161
967.546	78.042246
967.732	78.083298
967.918	78.628957
968.104	78.822687
968.289	78.510453
968.475	78.557141
968.661	78.128875
968.847	77.828015
969.032	78.516638
969.218	79.572536
969.404	79.612900
969.589	79.999803
969.775	80.275978
969.961	79.921764
970.146	80.107409
970.332	80.085189
970.517	80.444712
970.703	80.978609
970.888	81.374382
971.074	80.488227
971.260	80.234602
971.445	80.706614
971.630	80.888945
971.816	81.105547
972.001	81.339048
972.187	81.166229
972.372	81.447287
972.557	81.342861
972.743	81.415657
972.928	82.033079
973.113	82.919278
973.299	83.272632
973.484	83.137658
973.669	82.336590
973.854	81.221558
974.040	80.902327
974.225	80.732297
974.410	80.920604
974.595	80.748204
974.780	80.758049
974.965	80.345067
975.151	80.035499
975.336	80.032813
975.521	80.055454
975.706	80.898695
975.891	81.632846
976.076	81.732234
976.261	82.334106
976.446	82.111577
976.631	82.710544
976.816	82.204567
977.001	81.865250
977.186	81.876542
977.370	81.413284
977.555	81.497982
977.740	81.012465
977.925	80.978932
978.110	80.686149
978.295	80.018032
978.479	79.939857
978.664	79.636882
978.849	79.719357
979.034	79.742453
979.218	80.274301
979.403	81.349705
979.588	81.579972
979.772	81.377540
979.957	81.632507
980.141	82.327925
980.326	82.767033
980.511	82.648889
980.695	82.329564
980.880	81.994889
981.064	82.058080
981.249	81.717075
981.433	80.469954
981.618	80.213738
981.802	80.460956
981.987	80.142652
982.171	79.905703
982.355	79.852462
982.540	79.889361
982.724	80.722199
982.908	81.828412
983.093	82.573816
983.277	83.361426
983.461	84.777622
983.646	85.611164
983.830	86.586522
984.014	87.195037
984.198	87.285900
984.382	87.174896
984.567	88.051264
984.751	87.821435
984.935	87.435381
985.119	86.515255
985.303	85.467437
985.487	84.362646
985.671	83.322133
985.855	82.682944
986.039	83.426950
986.223	84.551397
986.407	85.401288
986.591	84.848768
986.775	85.522700
986.959	85.780915
987.143	85.497308
987.327	86.011545
987.511	86.450232
987.695	86.802288
987.879	86.465686
988.062	85.260284
988.246	84.313684
988.430	84.335318
988.614	84.321611
988.797	82.926086
988.981	82.247370
989.165	82.825184
989.349	82.231094
989.532	81.865471
989.716	81.048704
989.900	80.487691
990.083	80.836530
990.267	80.593116
990.450	80.062559
990.634	80.004871
990.817	80.689059
991.001	81.486421
991.184	81.358104
991.368	81.997762
991.551	82.693414
991.735	84.186506
991.918	85.713619
992.102	86.192981
992.285	86.716092
992.469	87.244445
992.652	87.343978
992.835	87.444818
993.019	87.162556
993.202	88.302601
993.385	88.717430
993.568	89.024839
993.752	88.740715
993.935	88.174943
994.118	88.005682
994.301	87.578580
994.484	87.225252
994.668	87.531120
994.851	87.282010
995.034	86.901667
995.217	86.175340
995.400	85.453939
995.583	84.509740
995.766	84.829591
995.949	84.869684
996.132	85.290060
996.315	85.879899
996.498	85.327966
996.681	84.772472
996.864	84.563300
997.047	84.605662
997.230	84.350324
997.413	84.658050
997.596	84.966545
997.778	84.122055
997.961	84.360490
998.144	84.112988
998.327	83.768557
998.510	84.164485
998.692	84.802803
998.875	85.496147
999.058	85.344964
999.241	85.487604
999.423	84.911716
999.606	84.575172
999.789	84.783485
999.971	84.529130
1000.154	84.090480
1000.336	84.618881
1000.519	85.499033
1000.701	85.739164
1000.884	86.184395
1001.067	87.352070
1001.249	88.056713
1001.431	89.031838
1001.614	89.303360
1001.796	89.203633
1001.979	89.237078
1002.161	89.961623
1002.344	90.166340
1002.526	89.228223
1002.708	88.130353
1002.891	87.003906
1003.073	85.601054
1003.255	84.426396
1003.438	84.425015
1003.620	84.769023
1003.802	85.032572
1003.984	85.635461
1004.166	85.684684
1004.349	85.330571
1004.531	85.250071
1004.713	84.925161
1004.895	85.202951
1005.077	85.843019
1005.259	87.005297
1005.441	87.114902
1005.623	87.286141
1005.805	87.471713
1005.987	87.148541
1006.169	87.164285
1006.351	87.584183
1006.533	88.232519
1006.715	88.945130
1006.897	88.839713
1007.079	89.758339
1007.261	90.117356
1007.443	89.961213
1007.625	90.033837
1007.806	90.620075
1007.988	90.567008
1008.170	89.876899
1008.352	89.303355
1008.534	89.226137
1008.715	90.633380
1008.897	91.000994
1009.079	90.479042
1009.260	90.209121
1009.442	89.885029
1009.624	88.924750
1009.805	87.766422
1009.987	87.813685
1010.169	87.886182
1010.350	88.491490
1010.532	89.004947
1010.713	87.673025
1010.895	87.843875
1011.076	87.720312
1011.258	87.722909
1011.439	88.644741
1011.621	89.792723
1011.802	89.655520
1011.983	89.039100
1012.165	89.214177
1012.346	88.882118
1012.527	87.994860
1012.709	88.548474
1012.890	88.646774
1013.071	88.505556
1013.253	87.848699
1013.434	87.073167
1013.615	86.832326
1013.796	88.153920
1013.978	88.867221
1014.159	89.053883
1014.340	88.925752
1014.521	89.418607
1014.702	89.477540
1014.883	88.955027
1015.064	88.708160
1015.245	88.573283
1015.427	88.614069
1015.608	88.126855
1015.789	87.858564
1015.970	87.267545
1016.151	87.209014
1016.332	87.472656
1016.512	86.881294
1016.693	86.421813
1016.874	86.510900
1017.055	86.608780
1017.236	87.284526
1017.417	88.410260
1017.598	88.935214
1017.779	88.784836
1017.959	89.809362
1018.140	90.218582
1018.321	90.103044
1018.502	90.598893
1018.682	90.060009
1018.863	90.480077
1019.044	91.376087
1019.224	91.888488
1019.405	91.147273
1019.586	90.692695
1019.766	90.567489
1019.947	90.252952
1020.127	89.617632
1020.308	89.565534
1020.488	89.682429
1020.669	90.384586
1020.849	90.210441
1021.030	89.808725
1021.210	89.268354
1021.391	88.693512
1021.571	88.961411
1021.752	89.120387
1021.932	88.675199
1022.112	88.615092
1022.293	89.087891
1022.473	88.439632
1022.653	88.492044
1022.834	88.851877
1023.014	88.594773
1023.194	88.181954
1023.374	88.837205
1023.555	89.100908
1023.735	88.584558
1023.915	89.094222
1024.095	88.672086
1024.275	87.965556
1024.455	88.381913
1024.635	87.987174
1024.816	87.470118
1024.996	87.821530
1025.176	87.957336
1025.356	87.503431
1025.536	87.043290
1025.716	86.720451
1025.896	86.209408
1026.076	86.918318
1026.256	87.138270
1026.436	87.406245
1026.615	88.092536
1026.795	87.900495
1026.975	88.026785
1027.155	88.495985
1027.335	88.030047
1027.515	87.881893
1027.695	88.520733
1027.874	89.460417
1028.054	89.334804
1028.234	89.544833
1028.413	89.362577
1028.593	90.630665
1028.773	91.292556
1028.953	90.534254
1029.132	89.531921
1029.312	90.351523
1029.491	90.989841
1029.671	91.544010
1029.851	90.570592
1030.030	90.419932
1030.210	90.102024
1030.389	90.523021
1030.569	89.111232
1030.748	89.281399
1030.928	89.819298
1031.107	90.060825
1031.286	90.341406
1031.466	90.482576
1031.645	89.672232
1031.825	90.013863
1032.004	90.540759
1032.183	91.136358
1032.363	90.934947
1032.542	90.978087
1032.721	90.402142
1032.900	89.215169
1033.080	89.964410
1033.259	89.619438
1033.438	88.456363
1033.617	88.877703
1033.796	88.554793
1033.975	88.541968
1034.155	87.996887
1034.334	87.985918
1034.513	88.431195
1034.692	88.508696
1034.871	89.629082
1035.050	88.186731
1035.229	87.808889
1035.408	88.198048
1035.587	87.919763
1035.766	88.135963
1035.945	87.481842
1036.124	86.250023
1036.303	85.451925
1036.481	84.731297
1036.660	84.782155
1036.839	85.441865
1037.018	86.377202
1037.197	85.608871
1037.376	85.418928
1037.554	84.962451
1037.733	84.545071
1037.912	84.804485
1038.091	85.832739
1038.269	85.841910
1038.448	84.930440
1038.627	84.860835
1038.805	83.492992
1038.984	83.415868
1039.162	84.023446
1039.341	84.970307
1039.520	85.043027
1039.698	85.416974
1039.877	85.921445
1040.055	86.091933
1040.234	85.922046
1040.412	86.119823
1040.591	86.796145
1040.769	87.745073
1040.947	88.176905
1041.126	87.887725
1041.304	86.781209
1041.483	86.365297
1041.661	85.836376
1041.839	84.506276
1042.017	82.568257
1042.196	82.810752
1042.374	84.117796
1042.552	83.356586
1042.730	83.459913
1042.909	83.494399
1043.087	85.043326
1043.265	85.892575
1043.443	86.876378
1043.621	87.543867
1043.799	87.702038
1043.978	89.365411
1044.156	89.837040
1044.334	89.725594
1044.512	90.434969
1044.690	89.748387
1044.868	89.265532
1045.046	87.921430
1045.224	87.601417
1045.402	87.431057
1045.580	87.800864
1045.758	88.601826
1045.935	88.568900
1046.113	87.953787
1046.291	87.848122
1046.469	86.804970
1046.647	86.526802
1046.825	86.315554
1047.002	86.186128
1047.180	86.932091
1047.358	87.113689
1047.536	86.350141
1047.713	86.505187
1047.891	87.282383
1048.069	88.039116
1048.246	87.887425
1048.424	88.214835
1048.602	88.707276
1048.779	89.787163
1048.957	90.513072
1049.134	89.860982
1049.312	89.872182
1049.489	89.712832
1049.667	89.009421
1049.844	88.804486
1050.022	88.387480
1050.199	88.385494
1050.377	88.093692
1050.554	88.015771
1050.731	87.069413
1050.909	86.395156
1051.086	86.297297
1051.263	86.382899
1051.441	87.318820
1051.618	88.088551
1051.795	87.316687
1051.973	86.770527
1052.150	86.609187
1052.327	87.393340
1052.504	87.492666
1052.681	88.072869
1052.859	88.293006
1053.036	88.224081
1053.213	87.913608
1053.390	87.383580
1053.567	87.273519
1053.744	87.481983
1053.921	87.596903
1054.098	87.027271
1054.275	86.546257
1054.452	86.909281
1054.629	86.430164
1054.806	86.416743
1054.983	86.899949
1055.160	87.355586
1055.337	87.744555
1055.514	87.111387
1055.691	86.795145
1055.868	87.829054
1056.044	88.915345
1056.221	88.895185
1056.398	88.199795
1056.575	88.399019
1056.751	89.055225
1056.928	88.794832
1057.105	88.505687
1057.282	88.666790
1057.458	89.295762
1057.635	89.536735
1057.812	87.975207
1057.988	86.045077
1058.165	85.851531
1058.341	85.758698
1058.518	85.073193
1058.694	84.749110
1058.871	84.952178
1059.047	85.044593
1059.224	84.333788
1059.401	84.053569
1059.577	84.344017
1059.753	85.103662
1059.930	86.088572
1060.106	86.707566
1060.282	87.029518
1060.459	87.360856
1060.635	86.676125
1060.812	85.619667
1060.988	84.520387
1061.164	84.497892
1061.340	84.910434
1061.517	84.735017
1061.693	85.015707
1061.869	84.949969
1062.045	84.066393
1062.221	84.343807
1062.398	84.440757
1062.574	84.555967
1062.750	84.724826
1062.926	85.454114
1063.102	85.544975
1063.278	84.522197
1063.454	83.980197
1063.630	83.232190
1063.806	83.695652
1063.982	84.128563
1064.158	83.101631
1064.334	83.413868
1064.510	83.467207
1064.686	82.895128
1064.862	82.478197
1065.038	81.959300
1065.214	81.843673
1065.389	82.700676
1065.565	83.260139
1065.741	83.222905
1065.917	83.104862
1066.093	83.007969
1066.268	81.937162
1066.444	81.884085
1066.620	82.918810
1066.795	83.500150
1066.971	84.293188
1067.147	84.340640
1067.322	83.448661
1067.498	83.308081
1067.673	83.479945
1067.849	83.354589
1068.025	83.828121
1068.200	84.496760
1068.376	84.565251
1068.551	84.384625
1068.727	84.488323
1068.902	84.224739
1069.078	83.829919
1069.253	84.060693
1069.428	84.332574
1069.604	83.887920
1069.779	84.004727
1069.954	84.136735
1070.130	84.012933
1070.305	84.380156
1070.480	84.887846
1070.656	85.156596
1070.831	84.903051
1071.006	85.617046
1071.181	85.415059
1071.357	85.285779
1071.532	84.962854
1071.707	84.335409
1071.882	83.901895
1072.057	83.706909
1072.232	82.942630
1072.407	82.108131
1072.582	81.733646
1072.757	81.827288
1072.932	81.320965
1073.107	81.674685
1073.282	81.679666
1073.457	82.164612
1073.632	82.676789
1073.807	81.743675
1073.982	81.716847
1074.157	81.934247
1074.332	81.314183
1074.507	80.487225
1074.682	79.912794
1074.856	79.827947
1075.031	79.429628
1075.206	78.928513
1075.381	78.224058
1075.556	78.029741
1075.730	79.559724
1075.905	79.126662
1076.080	79.149567
1076.254	79.395281
1076.429	79.509552
1076.604	79.817604
1076.778	80.143726
1076.953	79.737168
1077.127	79.330710
1077.302	78.776680
1077.477	78.631303
1077.651	77.794590
1077.826	77.875937
1078.000	77.954303
1078.175	77.776138
1078.349	77.629000
1078.523	78.329571
1078.698	78.769832
1078.872	79.211825
1079.047	79.756803
1079.221	80.644383
1079.395	80.923526
1079.570	81.203808
1079.744	81.302625
1079.918	81.058604
1080.092	81.341009
1080.267	81.565072
1080.441	80.453729
1080.615	80.419998
1080.789	80.163248
1080.963	79.519876
1081.137	79.551046
1081.312	79.306944
1081.486	79.029105
1081.660	79.091224
1081.834	79.036631
1082.008	80.053579
1082.182	80.716052
1082.356	81.165975
1082.530	80.927868
1082.704	81.747397
1082.878	82.835018
1083.052	83.347045
1083.226	83.530087
1083.400	83.389800
1083.573	83.597326
1083.747	83.805687
1083.921	83.121649
1084.095	82.347712
1084.269	81.621843
1084.443	81.493351
1084.616	81.438952
1084.790	80.858875
1084.964	79.419946
1085.138	79.691883
1085.311	80.108932
1085.485	79.168880
1085.659	78.392807
1085.832	78.198082
1086.006	78.257141
1086.179	78.750423
1086.353	78.212987
1086.527	77.951587
1086.700	77.629094
1086.874	78.218674
1087.047	77.716323
1087.221	77.194036
1087.394	77.560924
1087.568	77.821128
1087.741	77.942099
1087.914	77.819369
1088.088	77.283682
1088.261	76.861553
1088.435	76.013900
1088.608	75.682445
1088.781	75.689880
1088.954	75.720813
1089.128	75.446891
1089.301	75.366453
1089.474	75.097726
1089.647	74.238126
1089.821	73.495938
1089.994	73.504111
1090.167	74.385122
1090.340	74.504809
1090.513	74.673648
1090.686	74.250950
1090.859	73.963592
1091.032	73.852564
1091.206	73.548393
1091.379	73.293061
1091.552	73.428583
1091.725	73.291745
1091.898	73.413144
1092.071	73.926267
1092.244	74.014616
1092.416	73.651084
1092.589	73.520939
1092.762	72.900911
1092.935	72.470975
1093.108	72.500672
1093.281	72.561412
1093.453	72.909561
1093.626	73.419182
1093.799	73.115873
1093.972	72.000115
1094.145	71.573614
1094.317	71.879284
1094.490	72.437574
1094.663	73.384188
1094.835	74.597534
1095.008	75.305793
1095.181	75.929086
1095.353	75.666324
1095.526	75.655688
1095.698	75.892274
1095.871	75.825022
1096.043	75.940610
1096.216	75.918217
1096.388	75.407732
1096.561	75.334682
1096.733	75.179337
1096.906	74.483317
1097.078	73.379107
1097.250	73.871573
1097.423	73.774695
1097.595	73.485706
1097.768	72.989118
1097.940	72.566728
1098.112	72.093324
1098.284	72.165828
1098.457	71.692954
1098.629	71.654799
1098.801	71.570127
1098.973	72.016931
1099.146	71.689024
1099.318	71.576715
1099.490	71.598797
1099.662	72.502945
1099.834	73.250730
1100.006	73.909916
1100.178	73.942793
1100.350	73.641198
1100.522	73.097233
1100.694	73.147771
1100.866	72.501620
1101.038	72.048193
1101.210	71.995028
1101.382	72.170432
1101.554	71.856015
1101.726	71.621861
1101.898	70.956671
1102.070	70.949881
1102.241	71.588513
1102.413	71.655705
1102.585	71.478931
1102.757	72.011827
1102.929	72.045723
1103.100	72.013276
1103.272	71.360049
1103.444	70.932972
1103.616	70.329635
1103.787	70.105309
1103.959	70.120438
1104.130	69.373627
1104.302	68.711530
1104.474	68.550318
1104.645	68.320617
1104.817	68.142317
1104.988	67.700192
1105.160	67.678329
1105.331	67.344279
1105.503	67.442598
1105.674	67.689849
1105.846	67.805175
1106.017	68.375060
1106.189	69.209692
1106.360	69.486466
1106.531	69.512366
1106.703	69.259296
1106.874	69.421140
1107.045	69.017748
1107.217	68.862617
1107.388	68.945263
1107.559	68.419672
1107.730	67.373773
1107.902	66.484752
1108.073	65.902145
1108.244	65.756750
1108.415	65.855167
1108.586	65.776171
1108.757	65.582124
1108.929	65.717970
1109.100	65.752235
1109.271	65.214301
1109.442	64.856942
1109.613	64.815533
1109.784	64.855889
1109.955	65.000382
1110.126	64.818201
1110.297	64.256344
1110.468	64.132900
1110.639	63.820751
1110.809	63.943235
1110.980	63.823699
1111.151	63.677255
1111.322	64.170021
1111.493	64.317861
1111.664	64.075795
1111.834	63.530913
1112.005	63.258497
1112.176	63.940979
1112.347	64.622552
1112.517	65.201489
1112.688	65.190512
1112.859	65.532833
1113.029	65.979895
1113.200	65.856974
1113.371	65.995342
1113.541	65.778443
1113.712	65.739794
1113.882	65.951777
1114.053	65.246111
1114.223	64.357835
1114.394	63.438845
1114.564	62.990869
1114.735	63.006019
1114.905	62.812038
1115.076	62.710472
1115.246	62.624874
1115.416	63.068117
1115.587	63.420025
1115.757	63.294966
1115.927	63.443578
1116.098	63.160332
1116.268	63.546947
1116.438	64.046295
1116.609	63.310062
1116.779	63.117103
1116.949	63.415123
1117.119	63.562043
1117.289	63.572620
1117.459	63.516405
1117.630	63.297273
1117.800	63.070445
1117.970	63.507475
1118.140	63.032219
1118.310	62.305474
1118.480	62.314590
1118.650	61.673340
1118.820	60.725050
1118.990	60.161505
1119.160	59.391789
1119.330	58.837634
1119.500	58.350470
1119.670	58.215853
1119.840	57.940682
1120.010	58.242079
1120.179	58.642230
1120.349	58.549486
1120.519	59.055998
1120.689	59.469830
1120.859	59.194721
1121.028	59.275754
1121.198	58.766391
1121.368	58.350922
1121.538	58.185509
1121.707	57.722595
1121.877	57.392062
1122.047	57.056736
1122.216	56.919012
1122.386	56.696536
1122.555	56.695033
1122.725	57.099072
1122.894	56.983625
1123.064	57.667540
1123.233	58.361370
1123.403	58.168094
1123.573	58.197759
1123.742	57.994230
1123.911	57.827549
1124.081	57.811898
1124.250	57.531371
1124.419	56.959893
1124.589	55.814840
1124.758	55.575140
1124.927	55.040250
1125.097	54.793213
1125.266	54.894547
1125.435	54.756779
1125.605	54.500745
1125.774	54.157016
1125.943	53.962309
1126.112	54.409825
1126.281	54.884014
1126.450	55.855827
1126.620	55.759498
1126.789	55.683615
1126.958	55.273584
1127.127	55.189957
1127.296	55.687667
1127.465	56.409721
1127.634	56.292912
1127.803	55.932680
1127.972	55.376722
1128.141	55.100159
1128.310	55.128766
1128.479	55.356418
1128.648	55.688202
1128.817	55.798506
1128.985	55.297147
1129.154	54.635590
1129.323	54.095923
1129.492	54.489552
1129.661	54.579460
1129.829	54.252991
1129.998	53.887605
1130.167	53.589660
1130.336	53.340369
1130.504	53.098484
1130.673	53.078471
1130.842	53.249877
1131.010	53.236561
1131.179	53.154370
1131.347	52.732846
1131.516	52.404727
1131.685	52.618726
1131.853	52.538503
1132.022	52.250534
1132.190	52.311746
1132.359	51.900482
1132.527	51.337528
1132.696	51.086450
1132.864	51.070988
1133.032	50.574156
1133.201	50.102810
1133.369	50.305674
1133.537	50.151280
1133.706	50.317678
1133.874	49.982601
1134.042	49.670921
1134.211	49.514883
1134.379	49.636557
1134.547	49.520280
1134.715	49.087182
1134.884	49.040776
1135.052	49.065700
1135.220	48.582138
1135.388	48.304113
1135.556	47.882896
1135.724	47.751899
1135.892	48.026036
1136.060	48.167134
1136.228	47.778759
1136.396	47.258247
1136.564	47.038944
1136.732	46.843985
1136.900	47.000916
1137.068	47.397838
1137.236	47.339498
1137.404	47.085889
1137.572	47.004383
1137.740	46.771108
1137.908	46.777141
1138.076	47.457154
1138.243	47.817186
1138.411	47.945860
1138.579	48.078228
1138.747	48.128671
1138.914	47.776853
1139.082	47.594617
1139.250	47.743379
1139.417	47.762012
1139.585	47.201725
1139.753	46.997839
1139.920	46.329590
1140.088	46.549538
1140.256	46.674005
1140.423	46.638743
1140.591	46.347898
1140.758	46.598222
1140.926	47.035499
1141.093	47.172372
1141.261	46.945273
1141.428	47.103693
1141.596	46.760380
1141.763	46.727286
1141.930	46.110299
1142.098	46.273176
1142.265	46.538270
1142.432	46.691816
1142.600	46.522792
1142.767	45.820661
1142.934	45.516519
1143.102	45.892211
1143.269	45.595883
1143.436	45.216346
1143.603	45.052040
1143.771	45.202232
1143.938	44.732702
1144.105	44.344604
1144.272	43.851482
1144.439	43.202881
1144.606	43.145415
1144.773	43.114346
1144.940	42.401954
1145.107	42.545316
1145.274	42.669563
1145.441	42.481243
1145.608	42.409416
1145.775	42.226445
1145.942	42.018446
1146.109	42.194218
1146.276	42.793435
1146.443	42.713435
1146.610	42.552341
1146.776	43.014411
1146.943	42.437181
1147.110	42.348334
1147.277	42.052897
1147.444	41.647525
1147.610	41.440683
1147.777	41.202807
1147.944	40.987865
1148.110	40.790704
1148.277	40.540447
1148.444	39.790698
1148.610	39.221681
1148.777	39.539800
1148.944	39.506370
1149.110	39.783675
1149.277	39.905192
1149.443	39.845714
1149.610	39.941256
1149.776	39.382445
1149.943	38.403333
1150.109	38.475900
1150.276	38.921832
1150.442	39.025858
1150.608	39.057495
1150.775	39.535711
1150.941	39.582428
1151.107	39.547707
1151.274	39.465196
1151.440	38.980590
1151.606	39.174886
1151.773	39.521875
1151.939	38.904361
1152.105	38.815980
1152.271	38.718210
1152.438	38.181738
1152.604	37.151154
1152.770	36.784168
1152.936	36.427892
1153.102	36.355900
1153.268	36.438282
1153.434	36.662707
1153.600	36.664194
1153.766	37.145855
1153.932	36.718044
1154.098	36.172866
1154.264	35.826768
1154.430	35.705218
1154.596	35.372543
1154.762	35.313659
1154.928	35.094232
1155.094	34.308673
1155.260	33.852234
1155.426	33.873413
1155.591	33.548264
1155.757	33.503832
1155.923	33.374427
1156.089	33.958344
1156.255	34.529500
1156.420	34.529593
1156.586	34.415588
1156.752	34.384503
1156.917	35.375128
1157.083	35.387463
1157.249	34.634590
1157.414	34.085955
1157.580	33.800146
1157.745	33.996132
1157.911	33.812748
1158.076	33.539931
1158.242	33.759486
1158.407	33.420260
1158.573	33.258184
1158.738	32.635666
1158.904	32.513763
1159.069	32.861666
1159.235	33.090508
1159.400	33.444345
1159.565	33.551103
1159.731	33.104609
1159.896	33.169853
1160.061	32.920410
1160.227	33.466725
1160.392	33.625933
1160.557	33.715054
1160.722	33.373963
1160.888	33.588933
1161.053	33.867811
1161.218	33.530128
1161.383	33.451223
1161.548	33.512588
1161.713	33.051321
1161.878	32.713648
1162.043	32.372203
1162.208	32.187700
1162.374	32.183799
1162.539	31.871533
1162.704	31.228728
1162.869	30.751847
1163.033	30.733688
1163.198	30.550392
1163.363	30.467203
1163.528	30.143842
1163.693	29.848259
1163.858	29.383841
1164.023	28.951034
1164.188	28.322967
1164.353	28.779048
1164.517	28.534072
1164.682	28.955093
1164.847	28.679398
1165.011	28.011677
1165.176	27.908883
1165.341	28.523787
1165.506	29.060180
1165.670	29.534093
1165.835	30.256772
1166.000	30.981629
1166.164	30.654338
1166.329	31.055263
1166.493	30.788208
1166.658	31.449666
1166.822	32.433073
1166.987	32.642755
1167.151	32.195048
1167.316	31.896356
1167.480	31.288469
1167.645	30.456664
1167.809	29.948124
1167.973	30.006166
1168.138	29.935748
1168.302	29.596188
1168.466	28.783423
1168.631	28.081270
1168.795	28.196292
1168.959	28.072346
1169.124	27.903417
1169.288	27.986416
1169.452	28.012463
1169.616	27.785271
1169.780	27.500985
1169.944	27.103148
1170.109	27.496538
1170.273	27.548078
1170.437	27.295726
1170.601	26.639798
1170.765	26.519070
1170.929	26.475897
1171.093	26.287824
1171.257	26.331142
1171.421	26.398768
1171.585	27.090379
1171.749	27.705489
1171.913	27.341143
1172.077	27.306275
1172.240	27.573332
1172.404	27.716256
1172.568	28.025568
1172.732	28.410083
1172.896	28.583725
1173.060	28.811245
1173.223	29.446887
1173.387	29.112122
1173.551	28.519056
1173.715	28.727938
1173.878	28.825976
1174.042	28.696652
1174.206	28.237180
1174.369	27.705031
1174.533	27.021228
1174.696	26.881565
1174.860	26.717228
1175.023	26.269381
1175.187	26.026902
1175.351	25.774340
1175.514	25.553452
1175.677	25.504900
1175.841	24.975747
1176.004	25.424866
1176.168	25.959036
1176.331	25.766753
1176.495	25.389216
1176.658	25.228074
1176.821	25.211143
1176.985	25.206130
1177.148	25.558125
1177.311	25.395300
1177.474	24.736234
1177.638	25.093154
1177.801	24.868732
1177.964	24.291413
1178.127	24.684020
1178.291	24.965327
1178.454	24.728347
1178.617	24.176126
1178.780	24.118388
1178.943	23.990272
1179.106	23.830277
1179.269	23.988557
1179.432	23.855219
1179.595	23.445513
1179.758	23.500449
1179.921	23.643823
1180.084	23.845910
1180.247	23.812377
1180.410	23.598128
1180.573	23.389084
1180.736	22.956080
1180.899	22.929927
1181.061	23.124819
1181.224	22.774882
1181.387	23.380118
1181.550	23.474482
1181.713	23.017943
1181.875	22.962906
1182.038	22.834013
1182.201	23.007797
1182.363	22.712597
1182.526	23.014120
1182.689	23.163046
1182.851	22.981981
1183.014	23.081825
1183.177	22.772976
1183.339	22.831156
1183.502	23.323096
1183.664	23.238869
1183.827	23.459149
1183.989	23.629594
1184.152	24.164903
1184.314	24.269101
1184.477	24.176799
1184.639	24.469612
1184.801	24.594331
1184.964	24.690965
1185.126	24.373092
1185.288	24.502085
1185.451	24.547521
1185.613	24.450670
1185.775	24.409418
1185.938	24.073622
1186.100	24.025961
1186.262	23.937801
1186.424	23.734797
1186.586	23.889214
1186.749	23.159538
1186.911	23.320924
1187.073	22.890248
1187.235	22.483347
1187.397	22.538700
1187.559	22.385159
1187.721	22.221347
1187.883	22.046444
1188.045	21.730944
1188.207	21.862373
1188.369	21.893412
1188.531	22.535660
1188.693	22.819537
1188.855	22.336734
1189.017	22.392463
1189.179	22.570248
1189.341	22.701442
1189.502	23.228782
1189.664	23.089487
1189.826	23.355479
1189.988	23.184416
1190.150	23.131739
1190.311	22.897521
1190.473	22.226626
1190.635	22.894013
1190.796	22.918986
1190.958	22.783929
1191.120	22.785752
1191.281	22.658450
1191.443	22.608730
1191.604	22.677236
1191.766	22.834675
1191.928	22.706326
1192.089	22.766641
1192.251	22.696960
1192.412	22.354005
1192.574	22.328507
1192.735	21.961935
1192.896	22.024860
1193.058	21.802562
1193.219	21.864952
1193.381	21.771393
1193.542	21.604750
1193.703	21.875395
1193.865	22.331697
1194.026	22.737544
1194.187	22.774468
1194.349	22.818408
1194.510	22.891677
1194.671	22.862007
1194.832	23.007167
1194.993	23.144732
1195.155	23.063646
1195.316	23.006759
1195.477	23.056494
1195.638	22.705009
1195.799	22.973806
1195.960	23.251230
1196.121	23.211029
1196.282	23.235228
1196.443	23.287865
1196.604	23.766630
1196.765	23.727680
1196.926	23.897242
1197.087	24.122083
1197.248	24.171201
1197.409	24.602439
1197.570	24.367349
1197.730	24.130225
1197.891	23.781870
1198.052	23.722101
1198.213	23.619666
1198.374	23.270198
1198.534	23.716248
1198.695	24.032332
1198.856	24.411966
1199.016	24.342163
1199.177	24.183307
1199.338	24.389549
1199.498	25.003437
1199.659	25.399749
1199.820	25.984463
1199.980	26.193823
1200.141	25.897978
1200.301	25.460200
1200.462	25.146252
1200.622	24.642590
1200.783	24.462884
1200.943	24.303873
1201.104	24.155975
1201.264	23.516148
1201.424	23.443892
1201.585	23.229262
1201.745	23.232190
1201.906	23.398129
1202.066	23.430182
1202.226	23.571104
1202.386	23.822132
1202.547	23.625026
1202.707	23.767721
1202.867	23.816103
1203.027	23.625888
1203.188	23.928061
1203.348	23.672677
1203.508	23.134045
1203.668	23.010519
1203.828	23.298299
1203.988	23.371542
1204.148	23.617461
1204.308	23.737513
1204.468	23.180527
1204.628	22.731684
1204.788	22.669479
1204.948	22.323327
1205.108	22.575459
1205.268	23.281449
1205.428	23.527096
1205.588	23.559963
1205.748	23.550931
1205.908	23.384531
1206.068	23.711069
1206.228	24.085670
1206.387	24.309292
1206.547	24.344627
1206.707	24.379350
1206.867	24.391058
1207.026	23.764943
1207.186	23.430281
1207.346	23.407122
1207.505	23.191780
1207.665	22.585065
1207.825	22.121929
1207.984	22.501436
1208.144	22.839045
1208.303	23.281810
1208.463	23.949045
1208.622	24.208078
1208.782	24.889011
1208.941	25.574067
1209.101	25.205206
1209.260	25.425271
1209.420	26.017265
1209.579	26.549333
1209.739	26.330381
1209.898	26.176627
1210.057	25.921941
1210.217	25.586088
1210.376	25.448250
1210.535	25.308821
1210.694	25.171321
1210.854	25.447489
1211.013	25.639867
1211.172	25.648513
1211.331	25.570842
1211.490	25.716242
1211.650	25.684400
1211.809	25.753139
1211.968	25.934497
1212.127	25.841357
1212.286	25.901045
1212.445	26.049430
1212.604	26.515040
1212.763	26.466057
1212.922	26.796448
1213.081	27.053270
1213.240	27.064568
1213.399	27.271404
1213.558	28.087657
1213.717	28.299272
1213.876	28.768915
1214.035	28.861790
1214.194	28.295645
1214.352	28.162208
1214.511	28.581438
1214.670	28.702412
1214.829	29.062521
1214.988	29.916462
1215.146	30.021741
1215.305	29.710649
1215.464	29.858512
1215.622	29.877005
1215.781	30.243384
1215.940	30.687067
1216.098	30.323772
1216.257	29.567765
1216.415	29.070595
1216.574	28.683344
1216.732	28.274134
1216.891	28.707843
1217.049	28.989565
1217.208	28.945739
1217.366	28.892720
1217.525	28.205688
1217.683	28.187773
1217.842	28.612906
1218.000	29.291585
1218.158	30.005436
1218.317	30.093482
1218.475	30.290900
1218.633	29.988802
1218.792	29.634423
1218.950	29.640724
1219.108	29.806414
1219.266	30.174981
1219.425	30.017139
1219.583	30.106208
1219.741	29.978385
1219.899	30.026389
1220.057	30.049610
1220.215	29.634829
1220.373	29.435529
1220.531	29.746882
1220.689	29.627184
1220.847	29.062761
1221.005	28.635533
1221.163	28.978251
1221.322	29.244577
1221.479	29.317648
1221.637	28.821053
1221.795	28.567986
1221.953	28.435972
1222.111	28.556551
1222.269	28.343267
1222.427	28.513926
1222.584	28.829067
1222.742	29.806934
1222.900	30.067765
1223.058	29.763073
1223.216	30.088929
1223.373	30.495871
1223.531	30.784378
1223.689	31.262181
1223.846	31.682265
1224.004	31.616014
1224.162	31.510988
1224.319	31.714067
1224.477	31.012224
1224.634	30.776384
1224.792	30.926219
1224.949	30.684522
1225.107	30.680156
1225.264	31.015443
1225.422	30.659665
1225.579	30.351613
1225.737	30.789698
1225.894	31.116977
1226.052	31.611694
1226.209	32.401125
1226.366	33.243629
1226.523	33.829159
1226.681	34.039013
1226.838	34.165647
1226.995	34.514031
1227.153	34.940273
1227.310	35.355066
1227.467	35.455030
1227.624	35.724005
1227.781	35.355908
1227.938	35.081840
1228.096	34.756305
1228.253	34.343629
1228.410	34.341763
1228.567	34.851132
1228.724	34.379584
1228.881	34.245783
1229.038	34.135723
1229.195	34.418498
1229.352	34.031910
1229.509	33.911579
1229.666	34.181528
1229.823	33.963032
1229.980	33.971957
1230.136	33.829391
1230.293	33.114779
1230.450	33.143621
1230.607	33.291739
1230.764	33.450893
1230.921	33.133979
1231.077	33.219442
1231.234	33.372255
1231.391	33.285821
1231.547	33.028037
1231.704	32.982410
1231.861	33.197541
1232.018	33.484661
1232.174	33.697892
1232.331	33.292789
1232.487	33.003935
1232.644	33.116524
1232.800	33.086627
1232.957	33.235213
1233.113	33.435780
1233.270	33.627421
1233.426	33.790223
1233.583	33.746648
1233.739	33.503939
1233.896	33.767023
1234.052	34.413182
1234.208	34.906581
1234.365	35.038060
1234.521	35.275010
1234.677	35.334165
1234.834	35.069467
1234.990	35.017245
1235.146	35.250910
1235.302	35.413089
1235.459	36.045737
1235.615	36.006987
1235.771	36.217949
1235.927	36.542635
1236.083	36.663642
1236.239	37.526755
1236.396	37.844425
1236.552	38.063643
1236.708	38.681494
1236.864	39.010902
1237.020	39.728436
1237.176	39.322821
1237.332	38.933884
1237.488	38.542049
1237.644	38.168789
1237.799	38.360009
1237.955	37.524525
1238.111	37.366627
1238.267	37.659735
1238.423	37.317776
1238.579	36.917486
1238.734	36.350204
1238.890	36.576557
1239.046	37.255141
1239.202	37.779879
1239.357	37.711514
1239.513	37.278542
1239.669	37.003479
1239.824	36.978814
1239.980	36.690450
1240.136	37.038893
1240.291	37.180967
1240.447	37.575803
1240.603	37.535294
1240.758	37.481083
1240.914	37.651162
1241.069	38.246966
1241.225	38.721802
1241.380	39.287764
1241.535	39.473443
1241.691	39.817758
1241.846	39.666536
1242.002	39.999669
1242.157	39.935689
1242.313	40.086717
1242.468	40.278162
1242.623	40.187453
1242.778	40.040003
1242.934	40.010390
1243.089	40.279208
1243.244	40.788672
1243.399	41.301559
1243.554	41.866370
1243.710	41.830650
1243.865	42.373854
1244.020	42.463193
1244.175	42.571918
1244.330	42.627840
1244.485	42.631415
1244.640	42.418983
1244.795	42.796718
1244.950	42.960733
1245.105	42.649891
1245.260	42.337221
1245.415	42.658543
1245.570	42.280602
1245.725	42.221726
1245.880	41.742141
1246.035	41.836119
1246.190	42.329350
1246.345	42.986780
1246.499	42.529043
1246.654	42.061281
1246.809	42.348583
1246.964	42.279127
1247.118	41.818269
1247.273	41.860083
1247.428	42.133457
1247.583	42.420985
1247.737	42.456615
1247.892	42.051348
1248.047	41.432638
1248.201	40.972809
1248.356	41.116194
1248.510	40.693194
1248.665	40.399011
1248.819	41.036421
1248.974	41.311116
1249.128	40.866854
1249.283	40.284079
1249.437	40.080028
1249.592	40.193578
1249.746	40.215213
1249.900	40.197920
1250.055	39.859656
1250.209	39.691628
1250.363	39.515985
1250.518	39.842721
1250.672	39.638011
1250.826	40.722318
1250.981	41.656858
1251.135	41.932611
1251.289	42.270486
1251.443	43.418104
1251.597	44.123515
1251.751	44.348970
1251.906	44.185422
1252.060	45.145787
1252.214	45.013200
1252.368	45.060324
1252.522	44.693881
1252.676	44.703928
1252.830	45.102308
1252.984	45.402332
1253.138	44.822994
1253.292	45.212685
1253.446	45.415539
1253.600	46.067589
1253.754	46.318097
1253.907	45.856640
1254.061	45.670683
1254.215	45.205033
1254.369	45.092637
1254.523	45.000173
1254.677	44.822457
1254.830	44.887560
1254.984	45.156557
1255.138	45.657610
1255.292	45.652562
1255.445	45.096088
1255.599	44.721215
1255.752	44.739330
1255.906	45.961729
1256.060	45.938536
1256.213	45.126405
1256.367	44.802372
1256.520	45.030189
1256.674	45.023267
1256.827	44.665475
1256.981	44.558118
1257.134	45.316499
1257.288	46.221966
1257.441	46.367745
1257.594	45.345368
1257.748	45.634018
1257.901	46.783727
1258.055	47.194399
1258.208	47.505861
1258.361	47.413782
1258.515	47.828142
1258.668	47.999256
1258.821	47.936617
1258.974	47.764555
1259.127	48.143526
1259.281	48.756595
1259.434	48.936827
1259.587	48.831524
1259.740	48.897508
1259.893	48.536311
1260.046	47.830275
1260.199	47.003184
1260.352	46.907967
1260.505	45.628510
1260.658	45.314895
1260.811	45.295880
1260.964	45.551686
1261.117	45.526859
1261.270	45.091061
1261.423	44.000414
1261.576	44.031476
1261.729	45.021861
1261.882	46.536533
1262.035	47.225739
1262.188	48.926624
1262.340	49.114604
1262.493	49.399483
1262.646	49.360095
1262.798	49.967152
1262.951	50.878583
1263.104	52.136447
1263.257	52.153779
1263.409	51.462910
1263.562	49.893394
1263.714	49.070683
1263.867	48.394463
1264.020	48.810883
1264.172	48.738175
1264.325	48.611490
1264.477	48.614839
1264.630	48.576467
1264.782	48.650040
1264.935	48.727904
1265.087	49.464967
1265.240	50.321800
1265.392	51.257003
1265.544	51.419792
1265.697	50.907841
1265.849	50.155414
1266.001	49.784650
1266.154	49.695851
1266.306	49.826083
1266.458	49.785274
1266.610	50.255445
1266.762	49.491421
1266.915	49.238890
1267.067	48.536341
1267.219	48.823307
1267.371	49.262657
1267.523	50.950590
1267.675	52.301707
1267.828	52.011926
1267.979	51.440027
1268.132	50.891701
1268.284	50.394885
1268.436	50.587659
1268.588	50.841544
1268.740	51.995626
1268.891	52.236380
1269.043	52.133261
1269.195	50.543231
1269.347	49.790884
1269.499	50.519367
1269.651	51.089862
1269.803	52.050143
1269.955	52.636340
1270.106	52.299154
1270.258	51.934370
1270.410	51.864743
1270.562	52.240129
1270.713	52.392162
1270.865	53.273681
1271.017	52.964631
1271.168	52.649718
1271.320	52.084409
1271.471	51.145037
1271.623	50.795716
1271.775	51.760876
1271.926	52.664448
1272.078	52.082036
1272.229	51.649494
1272.381	52.358404
1272.532	52.454139
1272.684	52.935526
1272.835	52.125390
1272.986	51.668349
1273.138	52.153809
1273.289	52.839340
1273.440	53.270439
1273.592	53.353378
1273.743	53.247159
1273.894	52.782024
1274.046	52.073263
1274.197	51.764570
1274.348	51.508781
1274.500	52.297085
1274.651	53.514118
1274.802	54.083754
>>>>>>>>>> END of Data <<<<<<<<<<
