Date	2025年07月03日木曜日 09時50分14秒
Spectrometers	SR401765
ダーク	使用
リファレンス	使用
積分時間[msec]	300
平均回数	1
ｽﾑｰｼﾞﾝｸﾞ	5
Electrical Dark	USE
ピクセル数	3648
計測モード	反射率
保存開始波長[nm]	598.495
保存終了波長[nm]	1274.802
保存ﾋﾟｯﾁ波長[nm]	全波長

>>>>>>>>>> Data Start <<<<<<<<<<<<
598.495	-82.781870
598.713	-82.781870
598.931	-82.781870
599.148	-82.781870
599.366	0.000000
599.584	0.000000
599.802	0.000000
600.020	0.000000
600.238	0.000000
600.455	72.544518
600.673	494.996804
600.891	46.001181
601.109	41.900773
601.326	42.454781
601.544	42.648412
601.762	42.260544
601.979	41.935013
602.197	41.696975
602.415	41.798837
602.632	41.925546
602.850	41.944861
603.067	41.957527
603.285	42.002942
603.502	42.128930
603.720	42.173988
603.938	42.324780
604.155	42.590528
604.372	42.859565
604.590	43.193957
604.807	43.491033
605.025	43.631297
605.242	43.829996
605.460	44.017867
605.677	44.133323
605.894	44.256673
606.112	44.430617
606.329	44.695976
606.546	45.011562
606.764	45.225108
606.981	45.355059
607.198	45.420160
607.415	45.496105
607.633	45.552096
607.850	45.656593
608.067	45.793438
608.284	45.951260
608.501	46.151176
608.718	46.087637
608.935	46.114595
609.153	46.141348
609.370	46.247279
609.587	46.391814
609.804	46.644091
610.021	46.920123
610.238	47.001853
610.455	47.137858
610.672	47.231435
610.889	47.328941
611.106	47.489388
611.323	47.572049
611.540	47.586317
611.756	47.669243
611.973	47.947062
612.190	48.258404
612.407	48.601192
612.624	49.080171
612.841	49.261112
613.057	49.318774
613.274	49.468096
613.491	49.658428
613.708	49.899752
613.925	50.244134
614.141	50.287677
614.358	50.320309
614.575	50.423903
614.791	50.313632
615.008	50.008405
615.225	50.018935
615.441	50.246262
615.658	50.290084
615.874	50.271453
616.091	50.234413
616.307	50.304781
616.524	50.591654
616.740	50.804665
616.957	50.934171
617.173	51.118390
617.390	51.518475
617.606	51.876071
617.823	52.107282
618.039	52.311702
618.256	52.692517
618.472	53.089208
618.688	53.346661
618.905	53.611957
619.121	53.767062
619.337	53.840645
619.554	54.141876
619.770	54.267192
619.986	54.398916
620.202	54.607709
620.419	54.680238
620.635	54.633621
620.851	54.731680
621.067	54.956503
621.283	55.066831
621.499	55.155599
621.716	55.480830
621.932	55.621628
622.148	55.712869
622.364	55.947329
622.580	56.196499
622.796	56.536779
623.012	56.907296
623.228	57.119075
623.444	57.365318
623.660	57.694406
623.876	57.928407
624.092	57.865071
624.308	58.091261
624.524	58.615995
624.740	58.873373
624.955	58.968556
625.171	59.172189
625.387	59.447168
625.603	59.664735
625.819	59.694634
626.034	59.632222
626.250	59.683619
626.466	60.046572
626.682	60.420863
626.897	60.439070
627.113	60.446099
627.329	60.473937
627.544	60.503044
627.760	60.544903
627.976	60.553747
628.191	60.748890
628.407	60.911160
628.623	61.102319
628.838	61.186672
629.054	61.131915
629.269	61.252741
629.485	61.429908
629.700	61.751770
629.916	62.090708
630.131	62.301059
630.347	62.609532
630.562	62.871041
630.777	63.236962
630.993	63.600009
631.208	63.918123
631.424	64.028607
631.639	64.188892
631.854	64.446702
632.070	64.643321
632.285	64.779810
632.500	64.922173
632.715	65.088270
632.931	65.263209
633.146	65.632551
633.361	65.921182
633.576	66.069395
633.791	66.272425
634.007	66.392863
634.222	66.380211
634.437	66.422808
634.652	66.457787
634.867	66.455651
635.082	66.422550
635.297	66.410226
635.512	66.255963
635.727	66.008995
635.942	65.671662
636.157	65.551546
636.372	65.674304
636.587	65.917247
636.802	66.052385
637.017	66.152895
637.232	66.251475
637.447	66.387839
637.662	66.455380
637.876	66.528702
638.091	66.738588
638.306	67.019779
638.521	67.266178
638.736	67.318521
638.951	67.339640
639.165	67.463379
639.380	67.326332
639.595	67.157804
639.809	67.139030
640.024	67.297956
640.239	67.478611
640.453	67.755755
640.668	68.041034
640.883	68.048781
641.097	68.197274
641.312	68.502661
641.526	68.782454
641.741	69.393122
641.955	70.223311
642.170	70.646390
642.384	70.671171
642.599	70.500795
642.813	70.394480
643.028	70.493405
643.242	70.611243
643.457	70.641670
643.671	70.719011
643.885	70.757945
644.100	70.648345
644.314	70.326623
644.528	70.211756
644.743	70.501751
644.957	70.674807
645.171	70.604887
645.386	70.494246
645.600	70.805559
645.814	71.073385
646.028	71.108727
646.242	70.884802
646.457	70.692708
646.671	70.564059
646.885	70.488795
647.099	70.539877
647.313	71.063781
647.527	71.650620
647.741	72.041752
647.955	72.170788
648.169	72.229573
648.383	72.095923
648.597	72.363725
648.811	72.841521
649.025	73.375245
649.239	73.832983
649.453	73.739092
649.667	73.350237
649.881	73.046342
650.095	72.885589
650.309	72.856125
650.523	72.766916
650.737	72.656314
650.950	72.341108
651.164	71.982228
651.378	71.759227
651.592	71.466294
651.805	71.267255
652.019	71.073019
652.233	70.874727
652.447	70.729800
652.660	70.561419
652.874	70.632597
653.088	71.001505
653.301	71.411918
653.515	71.729012
653.728	71.774751
653.942	71.855289
654.156	72.252207
654.369	72.793086
654.583	73.088501
654.796	73.203157
655.010	73.163961
655.223	73.141928
655.437	73.008908
655.650	72.945412
655.863	72.989403
656.077	73.168209
656.290	73.415073
656.504	73.490909
656.717	73.577798
656.930	73.871849
657.144	74.138304
657.357	74.287892
657.570	74.197533
657.783	74.249850
657.997	74.443273
658.210	74.517135
658.423	74.578381
658.636	74.832756
658.849	75.076448
659.063	75.099990
659.276	75.302851
659.489	75.729286
659.702	76.048225
659.915	76.242274
660.128	76.353484
660.341	76.284437
660.554	76.477295
660.767	76.571689
660.980	76.280130
661.193	76.124414
661.406	76.074288
661.619	75.903342
661.832	75.732772
662.045	75.848663
662.258	76.202624
662.471	76.522345
662.684	76.798203
662.897	76.797468
663.110	76.684361
663.322	76.846678
663.535	76.936597
663.748	76.884841
663.961	76.876824
664.174	76.987513
664.386	76.927393
664.599	76.767670
664.812	76.827726
665.024	77.062981
665.237	77.097854
665.450	77.232727
665.662	77.461164
665.875	77.697557
666.088	78.069648
666.300	78.246744
666.513	78.150595
666.725	78.071082
666.938	78.365540
667.150	78.446981
667.363	78.189929
667.575	78.208888
667.788	78.420535
668.000	78.541054
668.213	78.463841
668.425	78.147428
668.638	77.890219
668.850	77.764457
669.062	77.804461
669.275	77.861616
669.487	78.002134
669.699	78.005189
669.912	77.930085
670.124	77.820412
670.336	77.701799
670.548	77.861967
670.761	78.311077
670.973	78.961252
671.185	79.381360
671.397	79.540966
671.609	79.278514
671.822	78.921783
672.034	78.959500
672.246	79.176957
672.458	79.337250
672.670	79.239673
672.882	79.002707
673.094	78.679723
673.306	78.275522
673.518	78.190578
673.730	78.145546
673.942	78.037264
674.154	77.926290
674.366	77.779605
674.578	77.665355
674.790	77.619630
675.002	77.670356
675.214	77.741266
675.425	77.872424
675.637	77.949025
675.849	77.903009
676.061	78.006015
676.273	78.234448
676.484	78.500089
676.696	78.916424
676.908	79.132583
677.120	79.175157
677.331	79.258886
677.543	79.444319
677.755	79.407500
677.966	79.285951
678.178	79.365108
678.389	79.688206
678.601	80.043302
678.813	80.182266
679.024	79.980170
679.236	79.886502
679.447	80.133694
679.659	80.630276
679.870	80.767291
680.082	80.738411
680.293	80.587668
680.505	80.307155
680.716	79.954089
680.927	79.799573
681.139	80.095440
681.350	80.505555
681.562	80.675054
681.773	80.446799
681.984	80.060420
682.196	79.760681
682.407	79.844782
682.618	80.179296
682.829	80.182649
683.041	79.961448
683.252	79.756789
683.463	79.538602
683.674	79.545725
683.885	79.644645
684.097	79.742910
684.308	79.896612
684.519	80.120956
684.730	80.091484
684.941	80.089002
685.152	80.553487
685.363	81.064700
685.574	81.007431
685.785	80.527017
685.996	79.997687
686.207	79.882392
686.418	80.071329
686.629	80.271562
686.840	80.407808
687.051	80.589787
687.262	80.602573
687.473	80.415069
687.684	80.295552
687.894	80.449103
688.105	80.749144
688.316	80.925877
688.527	80.592944
688.738	80.007359
688.948	79.307614
689.159	78.770099
689.370	78.403616
689.580	78.263026
689.791	78.432662
690.002	78.478936
690.212	78.500577
690.423	78.492873
690.634	78.558752
690.844	79.058253
691.055	79.646079
691.266	80.025359
691.476	80.245291
691.687	80.380823
691.897	80.309584
692.108	79.923380
692.318	79.681232
692.529	79.593355
692.739	79.443278
692.949	79.272680
693.160	78.989839
693.370	78.767042
693.581	78.741998
693.791	78.923442
694.001	79.359492
694.212	80.141695
694.422	80.975076
694.632	81.578419
694.843	82.086299
695.053	82.786384
695.263	83.169503
695.473	83.308150
695.683	83.403118
695.894	83.375746
696.104	83.286532
696.314	83.020147
696.524	82.442244
696.734	81.900961
696.944	81.701058
697.154	81.496529
697.365	81.058311
697.575	80.922841
697.785	80.818826
697.995	80.641035
698.205	80.669708
698.415	80.802289
698.625	80.790410
698.834	80.584684
699.044	80.407109
699.254	80.273814
699.464	80.091026
699.674	79.926853
699.884	79.667940
700.094	79.650153
700.304	79.899442
700.513	79.897014
700.723	79.547379
700.933	79.428118
701.143	79.604921
701.353	79.743660
701.562	79.812576
701.772	79.831322
701.982	79.662791
702.191	79.253365
702.401	78.829801
702.611	78.334767
702.820	78.295684
703.030	78.547223
703.239	78.665775
703.449	78.568488
703.659	78.214723
703.868	77.700529
704.078	77.686641
704.287	78.125226
704.497	78.869495
704.706	79.357857
704.916	79.440175
705.125	79.177358
705.334	79.036031
705.544	78.789539
705.753	78.477331
705.962	78.495092
706.172	78.485120
706.381	78.136434
706.590	77.770553
706.800	77.427449
707.009	77.395112
707.218	77.621347
707.428	77.702992
707.637	77.505505
707.846	77.492978
708.055	77.759686
708.264	77.888285
708.474	78.136954
708.683	78.357734
708.892	78.343693
709.101	78.312031
709.310	78.145301
709.519	78.283152
709.728	78.654439
709.937	78.969894
710.146	79.036673
710.355	78.846683
710.564	78.761295
710.773	78.916770
710.982	79.234301
711.191	79.752006
711.400	80.437947
711.609	81.000571
711.818	80.987261
712.027	80.683008
712.235	80.464682
712.444	80.479963
712.653	80.512208
712.862	80.473510
713.071	80.250038
713.279	80.039544
713.488	79.949046
713.697	79.704200
713.906	79.464954
714.114	79.576145
714.323	79.796506
714.532	79.970448
714.740	79.933662
714.949	79.801563
715.157	79.466978
715.366	79.083225
715.575	78.686532
715.783	78.562539
715.992	78.646248
716.200	78.516607
716.409	78.239278
716.617	78.318306
716.826	78.547935
717.034	78.758869
717.242	79.062222
717.451	79.539916
717.659	79.917850
717.868	80.030664
718.076	79.616357
718.284	78.950159
718.493	78.521599
718.701	78.354857
718.909	78.152706
719.118	77.682440
719.326	77.203482
719.534	76.947009
719.742	76.823095
719.951	76.692085
720.159	76.830164
720.367	77.269310
720.575	77.639409
720.783	77.872666
720.991	78.087047
721.199	78.183325
721.408	78.243877
721.616	78.497739
721.824	78.686538
722.032	78.902043
722.240	79.135896
722.448	79.072335
722.656	78.745520
722.864	78.574462
723.072	78.583863
723.280	78.160041
723.487	77.590420
723.695	77.317747
723.903	77.010822
724.111	76.671023
724.319	76.238747
724.527	75.741157
724.735	75.291295
724.942	75.031794
725.150	74.940367
725.358	74.972740
725.566	75.466081
725.773	75.962253
725.981	76.199745
726.189	76.306393
726.396	76.389528
726.604	76.508390
726.812	76.743455
727.019	77.155568
727.227	77.395729
727.435	77.514776
727.642	77.419317
727.850	76.919735
728.057	76.345684
728.265	75.979555
728.472	75.817328
728.680	75.787328
728.887	75.600671
729.095	75.287555
729.302	75.032213
729.509	74.867064
729.717	74.519149
729.924	74.318452
730.132	74.335956
730.339	74.443689
730.546	74.584759
730.753	74.908231
730.961	75.099161
731.168	75.274537
731.375	75.498653
731.583	75.440970
731.790	75.156985
731.997	75.129963
732.204	75.088740
732.411	74.959776
732.618	74.864655
732.826	74.806581
733.033	74.605191
733.240	74.503634
733.447	74.320484
733.654	74.063623
733.861	74.100487
734.068	74.262544
734.275	74.338896
734.482	74.449312
734.689	74.654104
734.896	75.026995
735.103	75.385962
735.310	75.702971
735.517	75.873075
735.724	76.078804
735.931	76.253148
736.137	76.277912
736.344	76.325202
736.551	76.281766
736.758	75.938920
736.965	75.396354
737.171	74.510605
737.378	73.642827
737.585	72.884251
737.792	72.375328
737.998	72.275001
738.205	72.341132
738.412	72.038141
738.618	71.570178
738.825	71.001333
739.032	70.648552
739.238	70.410665
739.445	70.301407
739.651	70.256442
739.858	70.314484
740.064	70.353915
740.271	70.160962
740.477	69.871162
740.684	69.746534
740.890	69.571536
741.097	69.556222
741.303	69.772615
741.510	70.120181
741.716	70.493058
741.922	70.855993
742.129	70.907480
742.335	70.519037
742.541	70.025067
742.748	69.653574
742.954	69.652751
743.160	70.106524
743.366	70.576805
743.573	70.608610
743.779	70.350327
743.985	70.035679
744.191	69.609159
744.397	69.343047
744.604	69.682014
744.810	70.134577
745.016	70.288188
745.222	70.200848
745.428	69.944373
745.634	69.726724
745.840	69.492817
746.046	69.099891
746.252	68.635866
746.458	68.313300
746.664	68.139525
746.870	67.741641
747.076	67.447916
747.282	67.585231
747.488	67.790462
747.694	67.933742
747.900	67.728635
748.105	67.674686
748.311	68.055330
748.517	68.480674
748.723	68.849957
748.929	69.176695
749.134	69.505969
749.340	69.589545
749.546	69.552976
749.752	69.533315
749.957	69.488331
750.163	69.645103
750.369	69.647576
750.574	69.547548
750.780	69.537130
750.985	69.670340
751.191	69.492281
751.397	69.170523
751.602	68.959899
751.808	68.448304
752.013	67.747652
752.219	67.212730
752.424	67.009300
752.630	67.138097
752.835	67.188382
753.041	67.116260
753.246	66.813671
753.451	66.628970
753.657	66.536433
753.862	66.412557
754.067	66.605921
754.273	67.147703
754.478	67.350612
754.683	67.116828
754.889	66.458258
755.094	65.807894
755.299	65.566621
755.504	65.202757
755.710	64.899186
755.915	64.654643
756.120	64.315295
756.325	64.024947
756.530	63.675986
756.735	63.312301
756.940	62.985874
757.146	63.015241
757.351	63.116402
757.556	62.937186
757.761	62.996685
757.966	62.991399
758.171	62.838660
758.376	62.642160
758.581	62.171381
758.786	61.599432
758.990	61.306655
759.195	61.245792
759.400	60.920458
759.605	60.462556
759.810	60.035366
760.015	59.605584
760.220	59.119676
760.424	58.732587
760.629	58.514759
760.834	58.510242
761.039	58.531194
761.244	58.415709
761.448	58.314363
761.653	58.408034
761.858	58.555694
762.062	58.567674
762.267	58.493314
762.472	58.364711
762.676	58.164142
762.881	57.846774
763.085	57.522964
763.290	57.231775
763.494	56.808319
763.699	56.261681
763.903	55.673162
764.108	55.026949
764.312	54.433662
764.517	53.982904
764.721	53.829796
764.926	53.812867
765.130	53.872733
765.335	53.737900
765.539	53.458701
765.743	53.251445
765.948	53.184816
766.152	53.261482
766.356	53.387508
766.560	53.571257
766.765	53.615916
766.969	53.497097
767.173	53.166749
767.377	52.772202
767.582	52.455651
767.786	52.361973
767.990	52.459307
768.194	52.342641
768.398	52.058022
768.602	51.871133
768.806	51.716027
769.010	51.531141
769.215	51.385958
769.419	51.450450
769.623	51.508462
769.827	51.460734
770.031	51.192712
770.234	50.832558
770.438	50.540410
770.642	50.320144
770.846	50.001546
771.050	49.727207
771.254	49.409406
771.458	49.036002
771.662	48.515324
771.866	48.071869
772.069	47.754621
772.273	47.358453
772.477	46.693193
772.681	46.050260
772.885	45.346545
773.088	44.549266
773.292	43.729396
773.496	43.064137
773.699	42.583866
773.903	42.205533
774.107	41.825343
774.310	41.367415
774.514	40.972537
774.717	40.878496
774.921	40.840887
775.124	40.865112
775.328	41.028275
775.531	41.074842
775.735	41.056799
775.938	40.950193
776.142	40.678223
776.345	40.444121
776.549	40.334175
776.752	40.299785
776.956	40.317707
777.159	40.068353
777.362	39.550086
777.566	39.131525
777.769	38.820562
777.972	38.494614
778.176	38.264331
778.379	38.076637
778.582	37.739925
778.785	37.324404
778.989	36.916851
779.192	36.474517
779.395	36.264244
779.598	35.977550
779.801	35.452578
780.004	34.952736
780.207	34.451444
780.411	33.832549
780.614	33.320090
780.817	32.894094
781.020	32.477493
781.223	32.092443
781.426	31.589140
781.629	31.050654
781.832	30.758632
782.035	30.586613
782.238	30.368747
782.440	30.106121
782.643	29.735043
782.846	29.397152
783.049	29.032037
783.252	28.801857
783.455	28.512096
783.658	28.247776
783.860	27.957799
784.063	27.688255
784.266	27.450913
784.469	27.263028
784.671	27.175859
784.874	26.981036
785.077	26.733955
785.279	26.433915
785.482	26.089148
785.685	25.683143
785.887	25.272861
786.090	24.867296
786.293	24.486102
786.495	24.122817
786.698	23.698726
786.900	23.224739
787.103	22.968936
787.305	22.622860
787.508	22.348337
787.710	22.139904
787.913	22.014228
788.115	21.878384
788.317	21.702778
788.520	21.530679
788.722	21.252190
788.924	20.894918
789.127	20.602357
789.329	20.267397
789.531	20.000424
789.734	19.825381
789.936	19.404774
790.138	18.974297
790.340	18.538691
790.543	18.096816
790.745	17.685273
790.947	17.215535
791.149	16.888117
791.351	16.635615
791.553	16.437400
791.756	16.290246
791.958	16.074352
792.160	15.978503
792.362	15.881158
792.564	15.758157
792.766	15.715056
792.968	15.661832
793.170	15.610478
793.372	15.420487
793.574	15.097470
793.776	14.773120
793.978	14.447240
794.180	14.135831
794.381	13.828533
794.583	13.515253
794.785	13.314821
794.987	13.120677
795.189	12.867570
795.391	12.718221
795.592	12.649027
795.794	12.547427
795.996	12.364925
796.198	12.215973
796.399	12.101250
796.601	11.981016
796.803	11.903080
797.004	11.806806
797.206	11.720356
797.407	11.613265
797.609	11.513867
797.811	11.318407
798.012	11.231668
798.214	11.128237
798.415	10.939704
798.617	10.869430
798.818	10.807023
799.020	10.715058
799.221	10.624971
799.423	10.433073
799.624	10.274497
799.826	10.129419
800.027	10.131431
800.228	10.088178
800.430	10.089646
800.631	10.112216
800.832	9.959333
801.034	9.895134
801.235	9.964538
801.436	9.918541
801.637	10.003978
801.839	10.176707
802.040	10.305603
802.241	10.328476
802.442	10.376615
802.643	10.458339
802.844	10.516661
803.046	10.599181
803.247	10.690079
803.448	10.621371
803.649	10.728294
803.850	10.859003
804.051	10.917420
804.252	11.003408
804.453	11.034397
804.654	11.091938
804.855	11.050619
805.056	11.163340
805.257	11.236374
805.458	11.303975
805.659	11.419973
805.859	11.449882
806.060	11.450493
806.261	11.458111
806.462	11.432105
806.663	11.638959
806.864	11.777473
807.064	12.028838
807.265	12.160391
807.466	12.333526
807.667	12.506382
807.867	12.730867
808.068	12.939337
808.269	13.070459
808.469	13.208010
808.670	13.449809
808.870	13.484377
809.071	13.557782
809.272	13.543365
809.472	13.581033
809.673	13.646544
809.873	13.684310
810.074	13.667813
810.274	13.775678
810.475	14.022830
810.675	14.225352
810.876	14.357579
811.076	14.541620
811.276	14.701987
811.477	14.993944
811.677	15.336163
811.878	15.643591
812.078	15.827301
812.278	16.008916
812.479	16.177375
812.679	16.335732
812.879	16.545545
813.079	16.719196
813.280	16.905182
813.480	17.131341
813.680	17.227515
813.880	17.288681
814.080	17.439545
814.280	17.722936
814.480	18.246890
814.681	18.767009
814.881	19.018310
815.081	19.293525
815.281	19.633976
815.481	19.995283
815.681	20.380421
815.881	20.952844
816.081	21.423092
816.281	21.674970
816.481	21.949528
816.681	22.052362
816.880	22.166755
817.080	22.419268
817.280	22.680390
817.480	22.960127
817.680	23.223777
817.880	23.475229
818.080	23.500932
818.279	23.634754
818.479	23.805620
818.679	24.021660
818.879	24.331022
819.078	24.542468
819.278	24.766285
819.478	24.872955
819.677	25.036033
819.877	25.341877
820.077	25.558911
820.276	25.876341
820.476	25.985769
820.675	26.106150
820.875	26.114692
821.074	26.169167
821.274	26.295937
821.473	26.499368
821.673	26.748941
821.872	26.947437
822.072	27.129111
822.271	27.415233
822.471	27.770407
822.670	28.271844
822.869	28.862312
823.069	29.457894
823.268	29.827834
823.467	30.221983
823.667	30.613342
823.866	30.929819
824.065	31.233959
824.265	31.509597
824.464	31.748375
824.663	31.890874
824.862	32.062343
825.061	32.343890
825.261	32.381941
825.460	32.412816
825.659	32.360955
825.858	32.268480
826.057	32.398891
826.256	32.633331
826.455	32.908712
826.654	33.033353
826.853	33.070844
827.052	33.127785
827.251	33.325102
827.450	33.645297
827.649	33.911524
827.848	34.284678
828.047	34.788869
828.246	35.016243
828.445	34.940836
828.644	34.816404
828.843	34.917191
829.041	35.097404
829.240	35.327823
829.439	35.372719
829.638	35.518801
829.836	35.801955
830.035	35.960042
830.234	36.137059
830.433	36.564596
830.631	37.160611
830.830	37.746564
831.029	38.053413
831.227	38.491015
831.426	39.130759
831.624	39.612648
831.823	39.907831
832.022	39.927112
832.220	39.791328
832.419	39.706251
832.617	39.752044
832.816	39.886933
833.014	40.146114
833.213	40.759385
833.411	41.188587
833.609	41.361889
833.808	41.661192
834.006	42.093814
834.205	42.587836
834.403	43.268088
834.601	43.668213
834.800	43.767115
834.998	43.896277
835.196	43.845448
835.394	43.570970
835.593	43.353961
835.791	43.097331
835.989	42.718323
836.187	42.380110
836.385	42.216852
836.584	42.086065
836.782	42.260919
836.980	42.599077
837.178	42.872302
837.376	43.139459
837.574	43.408411
837.772	43.758055
837.970	44.087950
838.168	44.498611
838.366	44.886328
838.564	45.197799
838.762	45.381116
838.960	45.330426
839.158	45.164880
839.356	45.021721
839.554	44.922182
839.752	44.930698
839.949	44.892696
840.147	44.999395
840.345	45.363476
840.543	45.871342
840.741	46.212799
840.938	46.513701
841.136	46.720371
841.334	46.954799
841.532	46.933941
841.729	46.768336
841.927	46.731167
842.125	46.836516
842.322	46.875458
842.520	46.721000
842.718	46.545792
842.915	46.669055
843.113	46.893944
843.310	47.404249
843.508	47.934303
843.705	48.655217
843.903	49.643729
844.100	50.278069
844.298	50.427163
844.495	50.364633
844.693	50.432219
844.890	50.517507
845.087	50.596131
845.285	50.769964
845.482	50.840364
845.679	50.850898
845.877	50.798421
846.074	50.769436
846.271	51.003340
846.469	51.559161
846.666	52.290079
846.863	52.911974
847.060	53.528872
847.257	53.815770
847.455	53.887892
847.652	53.947083
847.849	53.933703
848.046	54.037162
848.243	54.085284
848.440	54.029475
848.637	53.969089
848.834	53.793061
849.031	53.461934
849.228	52.931601
849.425	52.678163
849.622	52.499596
849.819	52.386580
850.016	52.688510
850.213	52.947158
850.410	52.764626
850.607	52.587158
850.804	52.496392
851.001	52.657031
851.198	52.898289
851.394	53.159231
851.591	53.595014
851.788	54.414233
851.985	54.962528
852.181	55.217400
852.378	55.140993
852.575	55.189621
852.772	55.144905
852.968	55.019250
853.165	54.930518
853.362	55.049958
853.558	55.179250
853.755	55.320300
853.951	55.324003
854.148	55.521514
854.345	55.558441
854.541	55.661814
854.738	56.095980
854.934	56.631056
855.131	57.187382
855.327	57.604049
855.523	57.879919
855.720	57.999530
855.916	57.823781
856.113	57.373994
856.309	56.796235
856.505	56.561431
856.702	56.775280
856.898	56.741742
857.094	56.570689
857.291	56.654448
857.487	56.960506
857.683	57.215960
857.879	57.569963
858.076	58.120721
858.272	58.744680
858.468	59.524507
858.664	60.137352
858.860	60.516447
859.056	60.688770
859.253	61.150673
859.449	61.669898
859.645	61.999222
859.841	62.276458
860.037	62.594848
860.233	62.624337
860.429	62.743786
860.625	62.867545
860.821	63.316400
861.017	63.632954
861.213	63.926238
861.409	64.102692
861.604	63.952668
861.800	63.654260
861.996	63.291178
862.192	63.221964
862.388	63.146996
862.584	62.965304
862.779	62.746890
862.975	62.014953
863.171	61.230923
863.367	61.017794
863.562	60.701993
863.758	60.448684
863.954	60.296859
864.149	60.570885
864.345	60.703696
864.541	60.754160
864.736	60.898553
864.932	60.986349
865.127	61.218603
865.323	61.547801
865.518	61.939928
865.714	62.559150
865.910	62.786713
866.105	62.645974
866.300	62.150698
866.496	61.970344
866.691	62.339427
866.887	62.688440
867.082	63.000495
867.277	63.257911
867.473	63.580994
867.668	63.526032
867.864	63.108500
868.059	63.018404
868.254	63.534060
868.449	64.305352
868.645	64.753479
868.840	64.887770
869.035	65.124111
869.230	65.693180
869.425	66.039375
869.621	66.089500
869.816	66.019813
870.011	65.858412
870.206	65.746529
870.401	65.493910
870.596	65.384308
870.791	65.161907
870.986	64.778830
871.181	64.350361
871.376	63.554219
871.571	63.112920
871.766	62.903362
871.961	62.971575
872.156	63.148230
872.351	63.298311
872.546	63.335613
872.741	63.203740
872.936	63.172412
873.130	63.498403
873.325	63.680071
873.520	63.963526
873.715	64.203621
873.910	64.306772
874.104	63.896262
874.299	63.416669
874.494	63.256693
874.688	63.712035
874.883	64.012287
875.078	64.339486
875.272	64.411868
875.467	64.229126
875.662	63.722534
875.856	63.074200
876.051	62.999343
876.245	63.418696
876.440	64.085332
876.634	64.537355
876.829	64.322399
877.023	64.118913
877.218	64.006883
877.412	63.772702
877.607	63.446335
877.801	63.140123
877.995	62.920658
878.190	62.526832
878.384	62.544971
878.578	62.607563
878.773	62.780557
878.967	63.289059
879.161	63.940994
879.356	64.450608
879.550	64.912739
879.744	65.753880
879.938	66.683104
880.133	67.994428
880.327	69.117730
880.521	69.744694
880.715	70.448076
880.909	70.610249
881.103	70.590019
881.297	70.698934
881.491	70.577653
881.685	70.537661
881.880	70.559449
882.073	70.785165
882.267	70.679715
882.461	70.857509
882.655	71.199754
882.849	71.305835
883.043	71.733991
883.237	71.840037
883.431	71.431144
883.625	71.184430
883.819	71.348243
884.013	71.525454
884.206	71.666582
884.400	71.484791
884.594	71.101719
884.788	70.977534
884.982	71.289545
885.175	71.302091
885.369	71.115719
885.563	70.921335
885.756	70.825741
885.950	70.514672
886.144	70.148316
886.337	70.312328
886.531	70.669604
886.724	71.100398
886.918	71.396347
887.112	71.161671
887.305	71.072329
887.499	71.304130
887.692	71.625572
887.885	71.819634
888.079	71.800701
888.272	71.689062
888.466	71.500150
888.659	71.341150
888.853	71.009826
889.046	70.428583
889.239	69.850541
889.433	69.552885
889.626	68.820629
889.819	67.944904
890.013	67.440438
890.206	67.468194
890.399	67.750418
890.592	67.673907
890.785	67.664057
890.979	67.668234
891.172	67.824380
891.365	68.105421
891.558	68.366516
891.751	68.895405
891.944	69.664318
892.137	70.099611
892.330	70.057285
892.524	69.621345
892.717	69.181642
892.910	68.763622
893.103	68.727652
893.296	68.648263
893.488	68.548669
893.681	68.171119
893.874	68.031689
894.067	68.116578
894.260	68.633625
894.453	69.402885
894.646	70.222428
894.839	70.951558
895.031	72.013793
895.224	73.013427
895.417	74.071651
895.610	75.232769
895.802	76.031707
895.995	76.213608
896.188	75.941905
896.381	75.119342
896.573	74.358510
896.766	74.277345
896.958	74.600211
897.151	74.454969
897.344	73.798177
897.536	73.210023
897.729	72.379350
897.921	71.870044
898.114	71.509916
898.306	71.658040
898.499	71.584728
898.691	71.690773
898.884	71.533131
899.076	70.853318
899.269	70.444462
899.461	70.327226
899.653	70.188065
899.846	70.407744
900.038	70.838348
900.230	71.255904
900.423	71.195580
900.615	71.945754
900.807	72.428386
901.000	72.799505
901.192	73.498567
901.384	73.804707
901.576	74.082479
901.768	73.970778
901.961	73.981228
902.153	73.879964
902.345	74.264437
902.537	74.634226
902.729	74.303980
902.921	74.086806
903.113	73.899674
903.305	74.108316
903.497	74.680507
903.689	75.547959
903.881	76.440947
904.073	76.910686
904.265	77.405213
904.457	77.500044
904.649	77.735828
904.841	78.515236
905.033	79.147494
905.224	80.003086
905.416	79.911497
905.608	79.032371
905.800	77.918838
905.992	77.277059
906.183	76.674687
906.375	76.262304
906.567	76.497050
906.759	77.124265
906.950	77.405912
907.142	77.460197
907.334	76.973797
907.525	77.192697
907.717	77.843038
907.909	78.341764
908.100	78.283223
908.292	78.418761
908.483	78.397586
908.675	77.778353
908.866	76.724764
909.058	75.990305
909.249	75.432475
909.441	75.286714
909.632	75.000977
909.824	74.573531
910.015	74.199133
910.206	74.196950
910.398	74.014759
910.589	73.951619
910.780	74.364484
910.972	75.181824
911.163	75.759381
911.354	75.987444
911.546	76.001421
911.737	76.255988
911.928	76.665400
912.119	76.942505
912.310	77.442589
912.502	77.994565
912.693	78.434705
912.884	78.475405
913.075	78.073201
913.266	78.047160
913.457	78.537756
913.648	78.925131
913.839	78.789309
914.030	78.602407
914.221	78.878953
914.412	79.197606
914.603	79.477777
914.794	79.808360
914.985	80.298439
915.176	80.819046
915.367	80.705193
915.558	80.750072
915.749	81.119402
915.940	81.511336
916.130	81.994021
916.321	82.159489
916.512	81.642210
916.703	80.889542
916.893	80.349893
917.084	80.020117
917.275	79.989954
917.466	80.325731
917.656	80.080822
917.847	79.568780
918.038	78.667625
918.228	77.864616
918.419	77.531830
918.609	77.200123
918.800	77.445006
918.990	77.840705
919.181	77.950060
919.372	77.644881
919.562	77.150813
919.753	76.850323
919.943	76.708447
920.133	77.152424
920.324	77.918644
920.514	78.152887
920.705	78.836993
920.895	78.727004
921.085	78.154992
921.276	78.219120
921.466	78.235547
921.656	78.376246
921.847	78.237044
922.037	77.700062
922.227	77.585348
922.417	77.050428
922.608	76.639072
922.798	76.183469
922.988	76.440056
923.178	76.449174
923.368	76.101772
923.558	75.985292
923.748	75.569032
923.939	75.566099
924.129	75.605122
924.319	75.287108
924.509	75.321276
924.699	75.573660
924.889	76.144123
925.079	76.222475
925.269	76.199509
925.459	76.076920
925.648	76.192150
925.838	76.754153
926.028	76.859982
926.218	77.125901
926.408	77.408348
926.598	77.884087
926.788	78.129360
926.977	77.651692
927.167	77.637008
927.357	78.445094
927.547	79.214199
927.736	79.958242
927.926	80.057130
928.116	80.454548
928.305	80.836030
928.495	81.210170
928.685	81.108539
928.874	81.085215
929.064	81.349337
929.253	81.598876
929.443	81.862126
929.633	82.130366
929.822	81.745491
930.012	81.438687
930.201	81.447659
930.391	81.502489
930.580	81.369522
930.769	81.394648
930.959	81.153014
931.148	80.748819
931.338	80.144206
931.527	79.342399
931.716	78.619668
931.906	78.304146
932.095	78.014098
932.284	77.333958
932.474	77.579917
932.663	77.985106
932.852	78.168324
933.041	78.299501
933.230	78.897185
933.420	79.677878
933.609	80.172286
933.798	80.226372
933.987	80.091121
934.176	80.529464
934.365	81.424701
934.554	81.527397
934.743	81.417989
934.932	81.495805
935.121	81.638635
935.310	81.508441
935.499	80.901715
935.688	80.569923
935.877	80.997704
936.066	81.435050
936.255	81.559779
936.444	81.419999
936.633	81.429094
936.822	81.863285
937.010	82.094537
937.199	82.055809
937.388	82.289684
937.577	82.670931
937.766	82.351566
937.954	81.409682
938.143	81.092652
938.332	80.858489
938.520	80.501400
938.709	79.939437
938.898	79.034040
939.086	78.248177
939.275	77.605829
939.464	76.832285
939.652	76.460316
939.841	76.436756
940.029	76.320086
940.218	76.284980
940.406	76.312482
940.595	76.377462
940.783	76.404399
940.972	76.595089
941.160	76.382174
941.349	76.736388
941.537	76.919435
941.725	76.879936
941.914	76.886338
942.102	76.928032
942.290	76.435398
942.479	76.103735
942.667	75.954514
942.855	75.950069
943.043	76.079766
943.232	76.594073
943.420	77.197458
943.608	78.022721
943.796	78.482360
943.984	78.776714
944.172	79.175966
944.361	79.863628
944.549	80.163992
944.737	80.117595
944.925	79.962124
945.113	80.001133
945.301	80.316073
945.489	80.278812
945.677	79.705205
945.865	79.429766
946.053	79.183980
946.241	79.418443
946.429	79.802749
946.617	80.845864
946.805	82.093996
946.992	83.033345
947.180	83.239779
947.368	83.262558
947.556	83.143531
947.744	83.245025
947.931	83.474684
948.119	83.182490
948.307	82.893926
948.495	82.514432
948.682	81.866316
948.870	81.297035
949.058	81.246797
949.245	81.132620
949.433	80.818008
949.621	80.857866
949.808	81.093307
949.996	80.925047
950.183	81.886904
950.371	82.497644
950.558	82.838804
950.746	83.153148
950.933	82.905901
951.121	82.303928
951.308	82.635441
951.496	82.678144
951.683	82.439705
951.870	82.291375
952.058	82.399646
952.245	82.657932
952.433	82.540482
952.620	82.302256
952.807	81.706897
952.994	81.565024
953.182	81.446227
953.369	80.553959
953.556	79.974197
953.743	79.446012
953.931	78.917750
954.118	78.483134
954.305	77.590146
954.492	77.234811
954.679	76.817295
954.866	76.623451
955.053	76.233742
955.240	76.071567
955.427	76.588056
955.615	76.885577
955.802	76.980012
955.989	77.034388
956.175	76.833316
956.362	76.573005
956.549	76.493450
956.736	76.894547
956.923	76.882470
957.110	76.666096
957.297	76.280708
957.484	75.462408
957.671	74.713301
957.857	73.997497
958.044	73.391138
958.231	73.434990
958.418	73.912353
958.604	74.511190
958.791	74.473618
958.978	74.663413
959.165	75.289646
959.351	75.686113
959.538	76.189264
959.724	77.295093
959.911	78.345508
960.098	79.173359
960.284	79.862923
960.471	79.782351
960.657	79.554613
960.844	80.092363
961.030	80.689646
961.217	81.447020
961.403	82.084779
961.590	82.581835
961.776	83.038423
961.963	83.698576
962.149	84.468299
962.335	85.466995
962.522	86.693152
962.708	87.545827
962.894	87.876388
963.081	88.131958
963.267	88.394511
963.453	88.799181
963.639	89.094462
963.826	88.811313
964.012	88.006323
964.198	87.031042
964.384	85.877023
964.570	85.011366
964.756	83.654567
964.943	82.866844
965.129	81.921160
965.315	81.073599
965.501	80.328379
965.687	79.810579
965.873	79.261608
966.059	79.306599
966.245	79.626544
966.431	79.236682
966.617	79.386621
966.803	80.055147
966.989	79.910672
967.174	80.113903
967.360	79.737197
967.546	79.608474
967.732	79.767464
967.918	80.053297
968.104	80.300140
968.289	80.454373
968.475	81.451019
968.661	81.717724
968.847	81.787300
969.032	82.704329
969.218	83.206161
969.404	83.898105
969.589	84.321823
969.775	84.273140
969.961	84.194420
970.146	84.169642
970.332	83.967576
970.517	83.406231
970.703	83.261533
970.888	83.227926
971.074	82.934060
971.260	82.741437
971.445	82.340825
971.630	82.769023
971.816	83.589306
972.001	83.918735
972.187	83.574022
972.372	83.379385
972.557	82.607405
972.743	81.720610
972.928	81.338028
973.113	80.528267
973.299	80.501437
973.484	81.361561
973.669	81.382404
973.854	80.500236
974.040	80.816145
974.225	81.328777
974.410	82.193168
974.595	83.039956
974.780	83.710561
974.965	84.199800
975.151	84.848134
975.336	84.658768
975.521	83.625633
975.706	83.412344
975.891	83.307534
976.076	82.969316
976.261	82.737695
976.446	82.455834
976.631	82.459467
976.816	82.239656
977.001	81.905031
977.186	81.875679
977.370	81.975109
977.555	82.831358
977.740	83.704704
977.925	84.244012
978.110	83.510851
978.295	83.569446
978.479	83.359508
978.664	83.315895
978.849	83.137179
979.034	83.054034
979.218	82.797935
979.403	83.247303
979.588	83.647230
979.772	82.554041
979.957	81.778357
980.141	82.194894
980.326	82.250758
980.511	82.327852
980.695	82.351905
980.880	82.389393
981.064	82.478898
981.249	82.107183
981.433	81.100321
981.618	80.028912
981.802	79.707602
981.987	79.694275
982.171	79.926746
982.355	80.135561
982.540	80.379905
982.724	80.809739
982.908	81.733151
983.093	82.477388
983.277	84.150162
983.461	86.188500
983.646	87.695830
983.830	89.220600
984.014	90.565228
984.198	90.828543
984.382	90.865815
984.567	91.306721
984.751	91.766073
984.935	91.502381
985.119	90.560964
985.303	89.306860
985.487	88.038491
985.671	86.510485
985.855	85.266001
986.039	84.999874
986.223	85.229077
986.407	85.549464
986.591	85.172968
986.775	85.269497
986.959	85.504211
987.143	85.712231
987.327	85.944748
987.511	85.843902
987.695	86.154654
987.879	86.027603
988.062	85.668068
988.246	85.753300
988.430	85.970983
988.614	86.026845
988.797	85.237866
988.981	85.100672
989.165	85.884607
989.349	85.799644
989.532	86.146453
989.716	85.907903
989.900	86.457430
990.083	86.733900
990.267	86.194374
990.450	86.411206
990.634	86.649663
990.817	87.064402
991.001	87.035419
991.184	86.204962
991.368	86.720122
991.551	87.355095
991.735	88.404191
991.918	88.778035
992.102	89.589221
992.285	91.186156
992.469	91.869771
992.652	92.527214
992.835	93.294156
993.019	94.244689
993.202	95.709886
993.385	95.803620
993.568	95.161722
993.752	94.503556
993.935	93.871841
994.118	93.228825
994.301	92.236273
994.484	91.198476
994.668	89.850921
994.851	88.764600
995.034	87.848159
995.217	86.565415
995.400	85.697582
995.583	85.183835
995.766	85.991693
995.949	86.769256
996.132	87.104683
996.315	87.075834
996.498	87.033182
996.681	87.825326
996.864	87.599524
997.047	87.403263
997.230	87.370283
997.413	86.795650
997.596	86.843342
997.778	85.743691
997.961	85.253527
998.144	84.933157
998.327	84.825920
998.510	84.791137
998.692	84.743706
998.875	85.198467
999.058	85.228305
999.241	85.463650
999.423	86.581796
999.606	86.970957
999.789	87.297822
999.971	87.713283
1000.154	87.986017
1000.336	88.613237
1000.519	88.716072
1000.701	88.338502
1000.884	89.011257
1001.067	89.724994
1001.249	89.821950
1001.431	89.736843
1001.614	89.194161
1001.796	88.917223
1001.979	88.151925
1002.161	87.417337
1002.344	86.572303
1002.526	86.566514
1002.708	86.927904
1002.891	86.342871
1003.073	85.605421
1003.255	85.671174
1003.438	86.914517
1003.620	88.316930
1003.802	89.058090
1003.984	89.821067
1004.166	90.206292
1004.349	90.715689
1004.531	90.675916
1004.713	90.523433
1004.895	90.549872
1005.077	90.662009
1005.259	91.377848
1005.441	90.541840
1005.623	90.332211
1005.805	90.387835
1005.987	90.360490
1006.169	90.658008
1006.351	91.313858
1006.533	92.495693
1006.715	92.974232
1006.897	93.536457
1007.079	94.851696
1007.261	94.587251
1007.443	94.745914
1007.625	94.995485
1007.806	95.505819
1007.988	96.408020
1008.170	97.659284
1008.352	97.195605
1008.534	96.204826
1008.715	96.671462
1008.897	96.294402
1009.079	95.759146
1009.260	96.253076
1009.442	96.137360
1009.624	94.641497
1009.805	93.664643
1009.987	92.758331
1010.169	91.649864
1010.350	91.624438
1010.532	91.664884
1010.713	90.355092
1010.895	89.841138
1011.076	89.366546
1011.258	89.427108
1011.439	89.738211
1011.621	90.411745
1011.802	90.692183
1011.983	90.967202
1012.165	91.573771
1012.346	91.416634
1012.527	91.079789
1012.709	91.921887
1012.890	92.876257
1013.071	93.250937
1013.253	92.480770
1013.434	92.174532
1013.615	92.328961
1013.796	93.218754
1013.978	93.277166
1014.159	92.968727
1014.340	92.979163
1014.521	93.806701
1014.702	94.248799
1014.883	93.880448
1015.064	93.572604
1015.245	93.224410
1015.427	93.369543
1015.608	92.685310
1015.789	91.470508
1015.970	90.615741
1016.151	90.036661
1016.332	89.435149
1016.512	88.347012
1016.693	87.784896
1016.874	87.896583
1017.055	87.880494
1017.236	88.618283
1017.417	88.605932
1017.598	89.303226
1017.779	89.633851
1017.959	90.557812
1018.140	91.384659
1018.321	91.794225
1018.502	92.411905
1018.682	92.493616
1018.863	92.273214
1019.044	92.377540
1019.224	92.364820
1019.405	92.579937
1019.586	91.746049
1019.766	90.940982
1019.947	90.347130
1020.127	89.013141
1020.308	88.626679
1020.488	88.768342
1020.669	89.312925
1020.849	90.347739
1021.030	89.979678
1021.210	89.700490
1021.391	89.227735
1021.571	90.069206
1021.752	90.676087
1021.932	90.239816
1022.112	89.964724
1022.293	90.439002
1022.473	89.811570
1022.653	89.736716
1022.834	89.385433
1023.014	89.743142
1023.194	89.309867
1023.374	89.912100
1023.555	90.137636
1023.735	89.973570
1023.915	90.115609
1024.095	90.287084
1024.275	89.816621
1024.455	90.446401
1024.635	89.955059
1024.816	89.249808
1024.996	89.527823
1025.176	90.119708
1025.356	89.885896
1025.536	89.082608
1025.716	89.323775
1025.896	89.359239
1026.076	89.524513
1026.256	89.534898
1026.436	89.557102
1026.615	89.642287
1026.795	89.298183
1026.975	89.565031
1027.155	89.608656
1027.335	89.037900
1027.515	89.155329
1027.695	88.928808
1027.874	90.068199
1028.054	90.271022
1028.234	90.785461
1028.413	90.598223
1028.593	90.699307
1028.773	90.942045
1028.953	90.083648
1029.132	90.507865
1029.312	92.006300
1029.491	92.595682
1029.671	93.493689
1029.851	92.763067
1030.030	93.710074
1030.210	95.056629
1030.389	95.305662
1030.569	94.693648
1030.748	95.399206
1030.928	95.147221
1031.107	93.837045
1031.286	92.506904
1031.466	92.133486
1031.645	91.513234
1031.825	92.175843
1032.004	92.407849
1032.183	91.333252
1032.363	91.672752
1032.542	92.108275
1032.721	91.401504
1032.900	91.310467
1033.080	91.964533
1033.259	92.109942
1033.438	91.812596
1033.617	92.022100
1033.796	90.882885
1033.975	90.236873
1034.155	90.363839
1034.334	89.876958
1034.513	89.803644
1034.692	89.948922
1034.871	90.023627
1035.050	88.006530
1035.229	87.380195
1035.408	86.682341
1035.587	86.344581
1035.766	86.734467
1035.945	87.322685
1036.124	86.577784
1036.303	86.144086
1036.481	85.988316
1036.660	85.898472
1036.839	86.978831
1037.018	89.601542
1037.197	90.587470
1037.376	92.345078
1037.554	92.408927
1037.733	92.358886
1037.912	91.909678
1038.091	92.606855
1038.269	93.571299
1038.448	93.180180
1038.627	93.079724
1038.805	91.618590
1038.984	90.446222
1039.162	89.197182
1039.341	88.721641
1039.520	89.621468
1039.698	90.179064
1039.877	90.033955
1040.055	90.252563
1040.234	89.573589
1040.412	90.110724
1040.591	90.515496
1040.769	90.938294
1040.947	91.453863
1041.126	92.600279
1041.304	93.121910
1041.483	92.336536
1041.661	91.734155
1041.839	90.868026
1042.017	89.325355
1042.196	89.316689
1042.374	89.565324
1042.552	89.403655
1042.730	90.015584
1042.909	89.567372
1043.087	89.607928
1043.265	89.321805
1043.443	89.944524
1043.621	90.314268
1043.799	90.465409
1043.978	91.273015
1044.156	91.376126
1044.334	91.420857
1044.512	91.897280
1044.690	91.163708
1044.868	91.747898
1045.046	92.028872
1045.224	91.595433
1045.402	91.029565
1045.580	91.084883
1045.758	91.555692
1045.935	91.474341
1046.113	90.591639
1046.291	89.308930
1046.469	87.812264
1046.647	88.249747
1046.825	88.016326
1047.002	86.913582
1047.180	87.008472
1047.358	86.783793
1047.536	86.576482
1047.713	87.011189
1047.891	87.666168
1048.069	88.570588
1048.246	89.551493
1048.424	90.251649
1048.602	90.272888
1048.779	91.129155
1048.957	91.706020
1049.134	92.184131
1049.312	92.784491
1049.489	92.683718
1049.667	92.641354
1049.844	92.675950
1050.022	92.698394
1050.199	92.937790
1050.377	92.896238
1050.554	92.629557
1050.731	91.728434
1050.909	91.224258
1051.086	89.683531
1051.263	88.772628
1051.441	89.020118
1051.618	88.296258
1051.795	87.456758
1051.973	86.997949
1052.150	87.349149
1052.327	87.810088
1052.504	87.792285
1052.681	87.322293
1052.859	88.080478
1053.036	89.043224
1053.213	89.889171
1053.390	90.095472
1053.567	90.950417
1053.744	90.937652
1053.921	90.614081
1054.098	89.516314
1054.275	89.282245
1054.452	89.599482
1054.629	90.187182
1054.806	89.794041
1054.983	90.268111
1055.160	90.646443
1055.337	90.732418
1055.514	89.922359
1055.691	89.668296
1055.868	90.836035
1056.044	92.267440
1056.221	92.239363
1056.398	91.615853
1056.575	91.784936
1056.751	92.328118
1056.928	91.523019
1057.105	91.851174
1057.282	92.386408
1057.458	93.131457
1057.635	93.760136
1057.812	92.303624
1057.988	90.539141
1058.165	91.272055
1058.341	92.273077
1058.518	92.025962
1058.694	91.501975
1058.871	91.905776
1059.047	91.513465
1059.224	90.450251
1059.401	90.162606
1059.577	89.897542
1059.753	90.287219
1059.930	90.698723
1060.106	89.559375
1060.282	88.942883
1060.459	88.732992
1060.635	88.546525
1060.812	88.364297
1060.988	87.917602
1061.164	88.474132
1061.340	88.603666
1061.517	88.511765
1061.693	88.837962
1061.869	88.490026
1062.045	88.060029
1062.221	87.855909
1062.398	88.043472
1062.574	88.155775
1062.750	88.517540
1062.926	88.941554
1063.102	88.526648
1063.278	87.971465
1063.454	87.651123
1063.630	87.018086
1063.806	87.171540
1063.982	87.589770
1064.158	86.823910
1064.334	86.352126
1064.510	86.166648
1064.686	85.303902
1064.862	84.676345
1065.038	84.967564
1065.214	85.050783
1065.389	85.930047
1065.565	86.395325
1065.741	86.400105
1065.917	86.688200
1066.093	86.960327
1066.268	86.821351
1066.444	86.511151
1066.620	86.170001
1066.795	85.947067
1066.971	85.746697
1067.147	85.531066
1067.322	84.879219
1067.498	84.552952
1067.673	84.858294
1067.849	84.461869
1068.025	85.033951
1068.200	85.886783
1068.376	86.176408
1068.551	86.195724
1068.727	86.007996
1068.902	85.577983
1069.078	86.298707
1069.253	86.826034
1069.428	86.986216
1069.604	86.599107
1069.779	87.122454
1069.954	86.997408
1070.130	86.659145
1070.305	87.180542
1070.480	87.947429
1070.656	87.926147
1070.831	87.670581
1071.006	87.553767
1071.181	87.882364
1071.357	88.665475
1071.532	89.582529
1071.707	89.301086
1071.882	88.714677
1072.057	88.030075
1072.232	86.987307
1072.407	86.268675
1072.582	86.410806
1072.757	87.034477
1072.932	86.131684
1073.107	85.154866
1073.282	84.340506
1073.457	83.954600
1073.632	84.152973
1073.807	83.600037
1073.982	83.495280
1074.157	83.490693
1074.332	83.219607
1074.507	83.248545
1074.682	82.879454
1074.856	82.923735
1075.031	83.284382
1075.206	83.207827
1075.381	82.762941
1075.556	82.446781
1075.730	83.296802
1075.905	83.126294
1076.080	83.216135
1076.254	82.804984
1076.429	82.981976
1076.604	83.165779
1076.778	83.219989
1076.953	82.294232
1077.127	81.617489
1077.302	80.351888
1077.477	80.045849
1077.651	79.576164
1077.826	79.825959
1078.000	79.991836
1078.175	80.622144
1078.349	80.600040
1078.523	80.931437
1078.698	81.160786
1078.872	81.581629
1079.047	83.096051
1079.221	85.268015
1079.395	86.028231
1079.570	86.774977
1079.744	86.529185
1079.918	86.545493
1080.092	87.160543
1080.267	87.538646
1080.441	86.595777
1080.615	86.318886
1080.789	86.024255
1080.963	84.709744
1081.137	84.152375
1081.312	83.871544
1081.486	83.305871
1081.660	83.229052
1081.834	82.285742
1082.008	81.750590
1082.182	81.435145
1082.356	81.733701
1082.530	81.817642
1082.704	82.017912
1082.878	82.247526
1083.052	81.998899
1083.226	81.382141
1083.400	81.291135
1083.573	81.499003
1083.747	82.193165
1083.921	82.421447
1084.095	81.751944
1084.269	80.843180
1084.443	80.581364
1084.616	81.426206
1084.790	81.613768
1084.964	81.082306
1085.138	81.082955
1085.311	81.738373
1085.485	82.699892
1085.659	82.590449
1085.832	82.039577
1086.006	82.060708
1086.179	82.970232
1086.353	82.870715
1086.527	82.432030
1086.700	82.373918
1086.874	82.574474
1087.047	82.673405
1087.221	81.705536
1087.394	80.439692
1087.568	80.453388
1087.741	80.825313
1087.914	81.104027
1088.088	80.902383
1088.261	80.667260
1088.435	79.547492
1088.608	78.664371
1088.781	77.932706
1088.954	77.611891
1089.128	78.310208
1089.301	79.013478
1089.474	79.073202
1089.647	78.617263
1089.821	77.940223
1089.994	77.634894
1090.167	77.730927
1090.340	77.991157
1090.513	78.042093
1090.686	78.795991
1090.859	79.201770
1091.032	78.049854
1091.206	76.854091
1091.379	76.127413
1091.552	76.117989
1091.725	76.076445
1091.898	75.842767
1092.071	76.255256
1092.244	76.272514
1092.416	76.431784
1092.589	76.601239
1092.762	75.614912
1092.935	75.457457
1093.108	76.037464
1093.281	75.841509
1093.453	76.174061
1093.626	76.184009
1093.799	75.917504
1093.972	75.581513
1094.145	75.935213
1094.317	76.747808
1094.490	76.346205
1094.663	77.249336
1094.835	78.050846
1095.008	78.307040
1095.181	79.811889
1095.353	80.294020
1095.526	80.935527
1095.698	80.951223
1095.871	80.285972
1096.043	80.049774
1096.216	79.071062
1096.388	78.432869
1096.561	78.593065
1096.733	78.918124
1096.906	78.164010
1097.078	76.993495
1097.250	76.666255
1097.423	76.366035
1097.595	76.247949
1097.768	76.363083
1097.940	75.786499
1098.112	75.573644
1098.284	75.848437
1098.457	74.727645
1098.629	73.717995
1098.801	74.116352
1098.973	73.809966
1099.146	73.601737
1099.318	73.653579
1099.490	74.086237
1099.662	74.468316
1099.834	74.382719
1100.006	74.843188
1100.178	75.537113
1100.350	75.910967
1100.522	76.018758
1100.694	75.362885
1100.866	75.475343
1101.038	75.147665
1101.210	74.844242
1101.382	75.064290
1101.554	74.933287
1101.726	75.227243
1101.898	75.057704
1102.070	74.140795
1102.241	74.132996
1102.413	74.139158
1102.585	74.118938
1102.757	74.130944
1102.929	74.512132
1103.100	75.080988
1103.272	74.217077
1103.444	73.448291
1103.616	72.879640
1103.787	72.565566
1103.959	73.057535
1104.130	72.973693
1104.302	72.384378
1104.474	72.595458
1104.645	72.506533
1104.817	72.587084
1104.988	71.847981
1105.160	71.703389
1105.331	71.954678
1105.503	72.453486
1105.674	72.167937
1105.846	72.027785
1106.017	72.848369
1106.189	73.316032
1106.360	72.874094
1106.531	73.028594
1106.703	71.850436
1106.874	71.338719
1107.045	71.328100
1107.217	70.831928
1107.388	69.970013
1107.559	69.078713
1107.730	68.040499
1107.902	67.020276
1108.073	67.178605
1108.244	67.375193
1108.415	66.814998
1108.586	66.955519
1108.757	67.035635
1108.929	66.909917
1109.100	66.848087
1109.271	67.107803
1109.442	67.309626
1109.613	67.044963
1109.784	66.697064
1109.955	66.349798
1110.126	65.995205
1110.297	65.610349
1110.468	65.181896
1110.639	65.103855
1110.809	65.239933
1110.980	65.082015
1111.151	64.366168
1111.322	64.656357
1111.493	64.564389
1111.664	64.079763
1111.834	63.910505
1112.005	63.798824
1112.176	64.045477
1112.347	64.464714
1112.517	65.055796
1112.688	64.890885
1112.859	65.059390
1113.029	65.965823
1113.200	66.474166
1113.371	67.534348
1113.541	68.273830
1113.712	68.588033
1113.882	68.455572
1114.053	68.568154
1114.223	68.795442
1114.394	67.993995
1114.564	67.648926
1114.735	67.894629
1114.905	67.532864
1115.076	66.940608
1115.246	66.515977
1115.416	66.303370
1115.587	65.805550
1115.757	65.963569
1115.927	66.159097
1116.098	65.314748
1116.268	65.363757
1116.438	65.981643
1116.609	65.318124
1116.779	65.398107
1116.949	66.060098
1117.119	66.368618
1117.289	66.274966
1117.459	66.453555
1117.630	66.260810
1117.800	65.967410
1117.970	66.210789
1118.140	65.764993
1118.310	65.007385
1118.480	65.386992
1118.650	64.673694
1118.820	63.885956
1118.990	62.976448
1119.160	62.254327
1119.330	61.924399
1119.500	61.962813
1119.670	61.914017
1119.840	62.215485
1120.010	62.765717
1120.179	63.531891
1120.349	63.336760
1120.519	63.583611
1120.689	63.896600
1120.859	64.259138
1121.028	64.411087
1121.198	63.744839
1121.368	63.339529
1121.538	63.031389
1121.707	62.185354
1121.877	61.653671
1122.047	60.621997
1122.216	60.342990
1122.386	60.724555
1122.555	60.336207
1122.725	60.128764
1122.894	60.510131
1123.064	60.911400
1123.233	60.974604
1123.403	60.595731
1123.573	61.010544
1123.742	61.044607
1123.911	60.931823
1124.081	60.676309
1124.250	59.797665
1124.419	59.379741
1124.589	59.008049
1124.758	58.376203
1124.927	58.146231
1125.097	57.896189
1125.266	58.144977
1125.435	57.758321
1125.605	57.876335
1125.774	58.306361
1125.943	58.485907
1126.112	59.278453
1126.281	59.535802
1126.450	59.854280
1126.620	59.954622
1126.789	60.041601
1126.958	60.167164
1127.127	59.984332
1127.296	60.430082
1127.465	60.464471
1127.634	60.094223
1127.803	59.703727
1127.972	59.175627
1128.141	59.152578
1128.310	59.408448
1128.479	59.546893
1128.648	59.450369
1128.817	59.002684
1128.985	58.750969
1129.154	58.317377
1129.323	58.088414
1129.492	57.649652
1129.661	57.546036
1129.829	57.255492
1129.998	56.892418
1130.167	56.182049
1130.336	55.958623
1130.504	55.799744
1130.673	55.668387
1130.842	55.358251
1131.010	54.850233
1131.179	54.383965
1131.347	54.369990
1131.516	54.393218
1131.685	54.816875
1131.853	54.642164
1132.022	54.570987
1132.190	54.326066
1132.359	54.279346
1132.527	54.409976
1132.696	54.506115
1132.864	54.261342
1133.032	53.907325
1133.201	53.659726
1133.369	53.706927
1133.537	53.167811
1133.706	52.969671
1133.874	52.578493
1134.042	52.442608
1134.211	52.371573
1134.379	52.391064
1134.547	52.327839
1134.715	52.696902
1134.884	53.105481
1135.052	53.334772
1135.220	53.329810
1135.388	53.697964
1135.556	54.044481
1135.724	54.593546
1135.892	55.309899
1136.060	55.371005
1136.228	55.146361
1136.396	54.769514
1136.564	54.361033
1136.732	54.141938
1136.900	54.382840
1137.068	54.434840
1137.236	54.116887
1137.404	53.641089
1137.572	53.307289
1137.740	52.745627
1137.908	52.450958
1138.076	52.317806
1138.243	52.709571
1138.411	52.989147
1138.579	52.643631
1138.747	52.150551
1138.914	51.920515
1139.082	51.826362
1139.250	51.809215
1139.417	51.414861
1139.585	50.860420
1139.753	50.889982
1139.920	50.987369
1140.088	50.648268
1140.256	50.548463
1140.423	50.694824
1140.591	50.593971
1140.758	50.453469
1140.926	50.426393
1141.093	50.562124
1141.261	50.982112
1141.428	51.439694
1141.596	51.350625
1141.763	51.227754
1141.930	51.466805
1142.098	51.774769
1142.265	51.958264
1142.432	52.154611
1142.600	51.764691
1142.767	51.378973
1142.934	51.149657
1143.102	50.937537
1143.269	50.414880
1143.436	49.872600
1143.603	49.559467
1143.771	49.713333
1143.938	48.929958
1144.105	48.648682
1144.272	48.481544
1144.439	48.534226
1144.606	48.274247
1144.773	47.882253
1144.940	47.465551
1145.107	47.764379
1145.274	48.099814
1145.441	48.544306
1145.608	48.174052
1145.775	48.252738
1145.942	48.151490
1146.109	48.079331
1146.276	47.912262
1146.443	47.827829
1146.610	48.230838
1146.776	48.517783
1146.943	48.371433
1147.110	48.413284
1147.277	47.906531
1147.444	47.295411
1147.610	46.986783
1147.777	46.655171
1147.944	46.253247
1148.110	46.402543
1148.277	46.377164
1148.444	45.570775
1148.610	45.020364
1148.777	44.831210
1148.944	44.232611
1149.110	43.852713
1149.277	44.381340
1149.443	44.396741
1149.610	44.007140
1149.776	43.679332
1149.943	43.032744
1150.109	42.883668
1150.276	43.207208
1150.442	43.390118
1150.608	43.249627
1150.775	43.749246
1150.941	44.183494
1151.107	43.911813
1151.274	44.126945
1151.440	44.383973
1151.606	45.067916
1151.773	45.721183
1151.939	45.957774
1152.105	46.368328
1152.271	46.283979
1152.438	46.036210
1152.604	45.391887
1152.770	45.306955
1152.936	45.112664
1153.102	44.704530
1153.268	44.711373
1153.434	44.216203
1153.600	43.948617
1153.766	43.874124
1153.932	43.333756
1154.098	43.333817
1154.264	43.205453
1154.430	43.069741
1154.596	42.411811
1154.762	42.429865
1154.928	42.705111
1155.094	42.351847
1155.260	42.276499
1155.426	42.288294
1155.591	42.057067
1155.757	41.921012
1155.923	41.791295
1156.089	42.230568
1156.255	42.621839
1156.420	42.635844
1156.586	42.429057
1156.752	42.072439
1156.917	42.020987
1157.083	41.796604
1157.249	41.520131
1157.414	40.899071
1157.580	41.131189
1157.745	41.404509
1157.911	41.078770
1158.076	41.107768
1158.242	41.449739
1158.407	41.176388
1158.573	41.138399
1158.738	41.254368
1158.904	41.304057
1159.069	40.936902
1159.235	41.373742
1159.400	41.768055
1159.565	41.612359
1159.731	41.687205
1159.896	40.984441
1160.061	40.559791
1160.227	40.880588
1160.392	40.985487
1160.557	40.891840
1160.722	40.961163
1160.888	41.036912
1161.053	41.447472
1161.218	40.901710
1161.383	40.739721
1161.548	40.660625
1161.713	40.955410
1161.878	40.954391
1162.043	40.778848
1162.208	40.823547
1162.374	40.718801
1162.539	40.520145
1162.704	40.678767
1162.869	40.225252
1163.033	40.355972
1163.198	41.064426
1163.363	40.999558
1163.528	40.941031
1163.693	40.977559
1163.858	40.705297
1164.023	39.836566
1164.188	39.624880
1164.353	39.749409
1164.517	39.298530
1164.682	39.208802
1164.847	38.625105
1165.011	37.274660
1165.176	37.290023
1165.341	37.381512
1165.506	37.502684
1165.670	38.111969
1165.835	38.849726
1166.000	39.043598
1166.164	38.612153
1166.329	38.650110
1166.493	38.557063
1166.658	38.552010
1166.822	39.137077
1166.987	39.188451
1167.151	39.272163
1167.316	39.268980
1167.480	38.848283
1167.645	38.819304
1167.809	38.566816
1167.973	38.933817
1168.138	39.193535
1168.302	39.290411
1168.466	39.407698
1168.631	39.075856
1168.795	38.755786
1168.959	38.467034
1169.124	38.171162
1169.288	38.067974
1169.452	37.929163
1169.616	37.987693
1169.780	37.927357
1169.944	38.075361
1170.109	37.897660
1170.273	37.691667
1170.437	37.248165
1170.601	36.705731
1170.765	36.345423
1170.929	36.317499
1171.093	36.150155
1171.257	35.456170
1171.421	35.159382
1171.585	34.949843
1171.749	34.829391
1171.913	34.585703
1172.077	34.755253
1172.240	35.350099
1172.404	36.133511
1172.568	36.750424
1172.732	36.890944
1172.896	36.869995
1173.060	37.392080
1173.223	37.884053
1173.387	37.910352
1173.551	37.858352
1173.715	38.414240
1173.878	38.483887
1174.042	38.780746
1174.206	38.205524
1174.369	37.389113
1174.533	36.751850
1174.696	36.409350
1174.860	36.174616
1175.023	36.315968
1175.187	36.443018
1175.351	36.203363
1175.514	35.964124
1175.677	36.026906
1175.841	35.361557
1176.004	35.923048
1176.168	37.022714
1176.331	37.798469
1176.495	38.193490
1176.658	38.354627
1176.821	37.825433
1176.985	37.690290
1177.148	37.705628
1177.311	37.238337
1177.474	36.712247
1177.638	36.802662
1177.801	36.551236
1177.964	35.861041
1178.127	35.935755
1178.291	36.255585
1178.454	36.111689
1178.617	36.127000
1178.780	36.234256
1178.943	36.303238
1179.106	36.346558
1179.269	36.846014
1179.432	37.502413
1179.595	37.412505
1179.758	37.360024
1179.921	37.179269
1180.084	37.146720
1180.247	37.533467
1180.410	37.513972
1180.573	37.333398
1180.736	37.260684
1180.899	37.439363
1181.061	37.080249
1181.224	36.073412
1181.387	36.175737
1181.550	36.327919
1181.713	36.011422
1181.875	35.882913
1182.038	35.569259
1182.201	35.897639
1182.363	35.885084
1182.526	36.114613
1182.689	36.307370
1182.851	36.273492
1183.014	36.709671
1183.177	36.639124
1183.339	36.809505
1183.502	37.626154
1183.664	37.743304
1183.827	38.135239
1183.989	38.317215
1184.152	38.303045
1184.314	38.184940
1184.477	38.313119
1184.639	38.572204
1184.801	38.420343
1184.964	38.297164
1185.126	38.194243
1185.288	38.072966
1185.451	38.390114
1185.613	37.942543
1185.775	37.580000
1185.938	37.489397
1186.100	37.354510
1186.262	37.022962
1186.424	36.862244
1186.586	37.154136
1186.749	36.999248
1186.911	36.786907
1187.073	36.400047
1187.235	35.925455
1187.397	36.118543
1187.559	36.370496
1187.721	36.905849
1187.883	37.544763
1188.045	37.474729
1188.207	37.732999
1188.369	37.625666
1188.531	37.711979
1188.693	38.040014
1188.855	37.451464
1189.017	36.954146
1189.179	37.084597
1189.341	36.807071
1189.502	36.677603
1189.664	35.987324
1189.826	36.074535
1189.988	35.455495
1190.150	35.205444
1190.311	35.173853
1190.473	34.634498
1190.635	35.146704
1190.796	35.384862
1190.958	34.941151
1191.120	35.068326
1191.281	34.992423
1191.443	35.390353
1191.604	35.719577
1191.766	36.357182
1191.928	36.978392
1192.089	37.785644
1192.251	38.277315
1192.412	38.212275
1192.574	38.612906
1192.735	39.088019
1192.896	39.021314
1193.058	38.886437
1193.219	38.714775
1193.381	38.299155
1193.542	38.026458
1193.703	38.046189
1193.865	38.284521
1194.026	38.492204
1194.187	38.709655
1194.349	38.589755
1194.510	38.323202
1194.671	38.452264
1194.832	38.723274
1194.993	38.758764
1195.155	38.910573
1195.316	38.911476
1195.477	38.878324
1195.638	38.203989
1195.799	37.850242
1195.960	37.425891
1196.121	37.356834
1196.282	37.955097
1196.443	38.209810
1196.604	38.594731
1196.765	38.911815
1196.926	39.081343
1197.087	39.471470
1197.248	39.781880
1197.409	39.822877
1197.570	40.154328
1197.730	40.657038
1197.891	40.754876
1198.052	40.303753
1198.213	40.441036
1198.374	39.831187
1198.534	39.212491
1198.695	39.075398
1198.856	38.785391
1199.016	38.196915
1199.177	38.319405
1199.338	38.120288
1199.498	38.297670
1199.659	38.733088
1199.820	38.999747
1199.980	38.908308
1200.141	39.229215
1200.301	39.912883
1200.462	40.026574
1200.622	40.275714
1200.783	40.210464
1200.943	39.968460
1201.104	40.184122
1201.264	40.376879
1201.424	40.496442
1201.585	40.748634
1201.745	40.847869
1201.906	40.592058
1202.066	40.951748
1202.226	41.650422
1202.386	42.071704
1202.547	42.145929
1202.707	42.397576
1202.867	42.248986
1203.027	41.730528
1203.188	41.512703
1203.348	41.288157
1203.508	41.097766
1203.668	41.024756
1203.828	40.828692
1203.988	40.855531
1204.148	40.468451
1204.308	40.482765
1204.468	40.377559
1204.628	40.054537
1204.788	39.948319
1204.948	39.970671
1205.108	40.422365
1205.268	40.594145
1205.428	41.286919
1205.588	41.681518
1205.748	41.267347
1205.908	41.769974
1206.068	41.893578
1206.228	41.982866
1206.387	42.615796
1206.547	43.110116
1206.707	42.994393
1206.867	42.614291
1207.026	42.729522
1207.186	42.489292
1207.346	42.127959
1207.505	41.922680
1207.665	41.259006
1207.825	41.337682
1207.984	41.132776
1208.144	40.886178
1208.303	40.774862
1208.463	40.696297
1208.622	40.971788
1208.782	41.194879
1208.941	41.177263
1209.101	40.813921
1209.260	41.144868
1209.420	41.040567
1209.579	41.369025
1209.739	42.475243
1209.898	43.127260
1210.057	43.304202
1210.217	43.480408
1210.376	43.477608
1210.535	43.347699
1210.694	43.526226
1210.854	43.866874
1211.013	43.972353
1211.172	44.407871
1211.331	44.457102
1211.490	43.891706
1211.650	43.651282
1211.809	43.750310
1211.968	44.010037
1212.127	44.049190
1212.286	44.075820
1212.445	44.261681
1212.604	44.705516
1212.763	44.816467
1212.922	45.241970
1213.081	45.527228
1213.240	45.602773
1213.399	45.621949
1213.558	45.924703
1213.717	46.129743
1213.876	46.274694
1214.035	46.674504
1214.194	46.688240
1214.352	46.252037
1214.511	46.571406
1214.670	46.454945
1214.829	46.363680
1214.988	46.830740
1215.146	46.933066
1215.305	47.149303
1215.464	47.235199
1215.622	47.542688
1215.781	47.960006
1215.940	47.951724
1216.098	48.112645
1216.257	47.686968
1216.415	47.678090
1216.574	47.778680
1216.732	47.769089
1216.891	47.684359
1217.049	47.184124
1217.208	47.097519
1217.366	46.563318
1217.525	45.378875
1217.683	45.490873
1217.842	45.421220
1218.000	45.728226
1218.158	45.570682
1218.317	45.110575
1218.475	45.012863
1218.633	45.689993
1218.792	46.641038
1218.950	47.168711
1219.108	47.860747
1219.266	48.383692
1219.425	48.510371
1219.583	48.753948
1219.741	48.743297
1219.899	49.255336
1220.057	49.919593
1220.215	49.853354
1220.373	48.842994
1220.531	47.681750
1220.689	47.293783
1220.847	46.810781
1221.005	46.385101
1221.163	45.952824
1221.322	46.160510
1221.479	46.419111
1221.637	46.008822
1221.795	45.710362
1221.953	46.020686
1222.111	46.571505
1222.269	47.130146
1222.427	47.093996
1222.584	47.081686
1222.742	47.625300
1222.900	47.646178
1223.058	47.280397
1223.216	47.099998
1223.373	47.392677
1223.531	47.464330
1223.689	47.076681
1223.846	47.584661
1224.004	48.004924
1224.162	48.422170
1224.319	48.656325
1224.477	48.663718
1224.634	49.319142
1224.792	50.243521
1224.949	50.697611
1225.107	51.165081
1225.264	51.279409
1225.422	51.416799
1225.579	51.029797
1225.737	50.830079
1225.894	50.723513
1226.052	50.579607
1226.209	50.745877
1226.366	50.904778
1226.523	50.706742
1226.681	50.727880
1226.838	50.685013
1226.995	50.827649
1227.153	51.031241
1227.310	51.418979
1227.467	51.559892
1227.624	51.236443
1227.781	51.439577
1227.938	51.964508
1228.096	51.210283
1228.253	50.252371
1228.410	49.430404
1228.567	49.300250
1228.724	49.343422
1228.881	49.139473
1229.038	48.842379
1229.195	48.947093
1229.352	49.539889
1229.509	50.095765
1229.666	50.466317
1229.823	50.829155
1229.980	51.584576
1230.136	52.318462
1230.293	52.114748
1230.450	52.191335
1230.607	52.166666
1230.764	52.548891
1230.921	52.379515
1231.077	51.656065
1231.234	51.062354
1231.391	49.853465
1231.547	49.482530
1231.704	49.306954
1231.861	48.779341
1232.018	48.688257
1232.174	48.685736
1232.331	48.956836
1232.487	48.590852
1232.644	48.595112
1232.800	49.049718
1232.957	49.214566
1233.113	49.446917
1233.270	49.824837
1233.426	50.268856
1233.583	50.459859
1233.739	50.494608
1233.896	50.493014
1234.052	50.451060
1234.208	50.655793
1234.365	50.463409
1234.521	50.701732
1234.677	50.752031
1234.834	50.909793
1234.990	50.926776
1235.146	50.893479
1235.302	50.864150
1235.459	51.145587
1235.615	51.423750
1235.771	52.138364
1235.927	52.763584
1236.083	52.939865
1236.239	53.040291
1236.396	53.639941
1236.552	54.330180
1236.708	54.807147
1236.864	54.931250
1237.020	55.498509
1237.176	55.577013
1237.332	55.670124
1237.488	55.194018
1237.644	54.297319
1237.799	54.724772
1237.955	54.567946
1238.111	54.246526
1238.267	54.317398
1238.423	54.879583
1238.579	55.066398
1238.734	55.168428
1238.890	55.813420
1239.046	55.615882
1239.202	55.733072
1239.357	56.046109
1239.513	55.717807
1239.669	55.879819
1239.824	56.373399
1239.980	56.039747
1240.136	55.626056
1240.291	55.515781
1240.447	55.777504
1240.603	55.615428
1240.758	56.076126
1240.914	56.333605
1241.069	56.987746
1241.225	57.506775
1241.380	57.476928
1241.535	56.865847
1241.691	57.067906
1241.846	57.008125
1242.002	56.519721
1242.157	55.502723
1242.313	54.823647
1242.468	54.555538
1242.623	54.317829
1242.778	54.542884
1242.934	54.132805
1243.089	53.974477
1243.244	53.769476
1243.399	53.546819
1243.554	53.870264
1243.710	54.707879
1243.865	55.356315
1244.020	55.909608
1244.175	55.793367
1244.330	55.845351
1244.485	54.916584
1244.640	54.943567
1244.795	55.386035
1244.950	55.955141
1245.105	56.370881
1245.260	56.107660
1245.415	56.106194
1245.570	56.577254
1245.725	56.524545
1245.880	57.227095
1246.035	57.769662
1246.190	58.185717
1246.345	58.406912
1246.499	58.586946
1246.654	59.107251
1246.809	59.253712
1246.964	59.363112
1247.118	58.992156
1247.273	59.056498
1247.428	59.321524
1247.583	58.689466
1247.737	58.015723
1247.892	58.130409
1248.047	57.843507
1248.201	56.343518
1248.356	55.062949
1248.510	54.698543
1248.665	54.652053
1248.819	54.232670
1248.974	53.662001
1249.128	53.532045
1249.283	53.737593
1249.437	54.164114
1249.592	54.345055
1249.746	54.182643
1249.900	55.711386
1250.055	56.945577
1250.209	56.920811
1250.363	56.508838
1250.518	57.447956
1250.672	58.276538
1250.826	59.242763
1250.981	59.570339
1251.135	59.925620
1251.289	60.004946
1251.443	60.623134
1251.597	60.093258
1251.751	59.252887
1251.906	59.338450
1252.060	59.945031
1252.214	60.099648
1252.368	60.029796
1252.522	59.610121
1252.676	59.393890
1252.830	59.389581
1252.984	60.007932
1253.138	60.582336
1253.292	61.286869
1253.446	62.557735
1253.600	63.716256
1253.754	64.001578
1253.907	63.329834
1254.061	62.806039
1254.215	62.090512
1254.369	62.577995
1254.523	63.193994
1254.677	63.156279
1254.830	63.143097
1254.984	63.441550
1255.138	62.759896
1255.292	61.916206
1255.445	61.699736
1255.599	61.808278
1255.752	61.978121
1255.906	62.390739
1256.060	61.995762
1256.213	61.022562
1256.367	61.422790
1256.520	61.466802
1256.674	61.053178
1256.827	61.703631
1256.981	61.930932
1257.134	61.899580
1257.288	62.056898
1257.441	62.150510
1257.594	62.437380
1257.748	62.555074
1257.901	62.632268
1258.055	61.664760
1258.208	61.718979
1258.361	61.912039
1258.515	61.622271
1258.668	61.294742
1258.821	61.174835
1258.974	61.882786
1259.127	62.218446
1259.281	61.864607
1259.434	62.430659
1259.587	62.525858
1259.740	62.740935
1259.893	62.757117
1260.046	61.966776
1260.199	61.178995
1260.352	61.707509
1260.505	62.001712
1260.658	61.736653
1260.811	61.729140
1260.964	62.748010
1261.117	62.570178
1261.270	62.990432
1261.423	62.504082
1261.576	61.875938
1261.729	62.247739
1261.882	63.083690
1262.035	62.869151
1262.188	63.397791
1262.340	63.079988
1262.493	63.033412
1262.646	62.318930
1262.798	62.931072
1262.951	63.650434
1263.104	65.178475
1263.257	65.924919
1263.409	66.796419
1263.562	66.404820
1263.714	66.477143
1263.867	66.621133
1264.020	67.251739
1264.172	67.811831
1264.325	68.455748
1264.477	68.084494
1264.630	67.937347
1264.782	66.795991
1264.935	66.311353
1265.087	66.200123
1265.240	67.348984
1265.392	67.787978
1265.544	67.961116
1265.697	67.213545
1265.849	66.463180
1266.001	65.777417
1266.154	65.461563
1266.306	64.875136
1266.458	64.709995
1266.610	65.158174
1266.762	64.859078
1266.915	64.816268
1267.067	64.816965
1267.219	64.616469
1267.371	65.850935
1267.523	66.743147
1267.675	67.063383
1267.828	66.993256
1267.979	67.458671
1268.132	67.963163
1268.284	67.597831
1268.436	68.082043
1268.588	67.937512
1268.740	68.541651
1268.891	68.564855
1269.043	67.254841
1269.195	65.816075
1269.347	66.174584
1269.499	66.388953
1269.651	66.169396
1269.803	66.617835
1269.955	66.217140
1270.106	65.373669
1270.258	64.991397
1270.410	64.890854
1270.562	64.962535
1270.713	66.011404
1270.865	67.410222
1271.017	67.015924
1271.168	66.687439
1271.320	66.140465
1271.471	65.057043
1271.623	65.509631
1271.775	66.012514
1271.926	66.343207
1272.078	64.991595
1272.229	64.309402
1272.381	64.826771
1272.532	64.943657
1272.684	63.957244
1272.835	63.158872
1272.986	63.820260
1273.138	65.239337
1273.289	66.423285
1273.440	66.477726
1273.592	66.502262
1273.743	67.726409
1273.894	69.836006
1274.046	69.455442
1274.197	69.285053
1274.348	71.145783
1274.500	73.602808
1274.651	74.290712
1274.802	74.383735
>>>>>>>>>> END of Data <<<<<<<<<<
