Date	2025年07月03日木曜日 09時48分45秒
Spectrometers	SR401765
ダーク	使用
リファレンス	使用
積分時間[msec]	300
平均回数	1
ｽﾑｰｼﾞﾝｸﾞ	5
Electrical Dark	USE
ピクセル数	3648
計測モード	反射率
保存開始波長[nm]	598.495
保存終了波長[nm]	1274.802
保存ﾋﾟｯﾁ波長[nm]	全波長

>>>>>>>>>> Data Start <<<<<<<<<<<<
598.495	99.974092
598.713	99.974092
598.931	99.974092
599.148	99.974092
599.366	0.000000
599.584	0.000000
599.802	0.000000
600.020	0.000000
600.238	0.000000
600.455	-30.970460
600.673	-43.464656
600.891	21.524846
601.109	25.922642
601.326	27.276857
601.544	27.339112
601.762	27.313947
601.979	27.403825
602.197	27.595297
602.415	27.786794
602.632	27.843966
602.850	28.076013
603.067	28.229086
603.285	28.565502
603.502	28.755997
603.720	28.835320
603.938	28.902952
604.155	29.064203
604.372	29.280054
604.590	29.491580
604.807	29.522576
605.025	29.614530
605.242	29.768325
605.460	29.992060
605.677	30.005809
605.894	30.026074
606.112	30.096229
606.329	30.377486
606.546	30.586992
606.764	30.862729
606.981	31.079009
607.198	31.287856
607.415	31.484681
607.633	31.668866
607.850	31.913434
608.067	32.164311
608.284	32.451563
608.501	32.745128
608.718	32.726335
608.935	32.673158
609.153	32.597119
609.370	32.685422
609.587	32.887446
609.804	33.208855
610.021	33.528754
610.238	33.579244
610.455	33.670937
610.672	33.819029
610.889	33.970525
611.106	34.245695
611.323	34.578760
611.540	34.872538
611.756	35.059836
611.973	35.336861
612.190	35.527406
612.407	35.627868
612.624	35.682514
612.841	35.743976
613.057	36.009334
613.274	36.229372
613.491	36.512260
613.708	36.593516
613.925	36.725556
614.141	36.802104
614.358	36.831910
614.575	36.945415
614.791	36.956470
615.008	37.098678
615.225	37.429560
615.441	37.581423
615.658	37.650965
615.874	37.812048
616.091	38.155061
616.307	38.467891
616.524	38.695043
616.740	38.946718
616.957	39.073700
617.173	39.253449
617.390	39.608930
617.606	39.938145
617.823	40.145716
618.039	40.302339
618.256	40.553423
618.472	40.709145
618.688	40.832263
618.905	41.189142
619.121	41.475045
619.337	41.715452
619.554	42.048271
619.770	42.184918
619.986	42.293492
620.202	42.565688
620.419	42.799847
620.635	42.772933
620.851	43.026369
621.067	43.341785
621.283	43.355825
621.499	43.312374
621.716	43.539866
621.932	43.692676
622.148	43.858039
622.364	44.027090
622.580	44.354398
622.796	44.822233
623.012	45.269843
623.228	45.429680
623.444	45.709972
623.660	46.135037
623.876	46.491476
624.092	46.595837
624.308	47.025618
624.524	47.557291
624.740	47.840423
624.955	47.829248
625.171	47.793399
625.387	47.970378
625.603	48.135752
625.819	48.140494
626.034	48.338337
626.250	48.661915
626.466	49.025030
626.682	49.273324
626.897	49.394535
627.113	49.591356
627.329	49.711061
627.544	49.828246
627.760	49.937475
627.976	50.355592
628.191	50.938917
628.407	51.081324
628.623	51.171224
628.838	51.311631
629.054	51.181468
629.269	51.133842
629.485	51.259024
629.700	51.538531
629.916	51.961225
630.131	52.287641
630.347	52.405205
630.562	52.372585
630.777	52.688049
630.993	53.016312
631.208	53.282094
631.424	53.699091
631.639	54.136437
631.854	54.619886
632.070	54.937000
632.285	55.045367
632.500	55.266108
632.715	55.443716
632.931	55.530562
633.146	55.614789
633.361	55.765084
633.576	55.893831
633.791	55.972919
634.007	56.078311
634.222	56.045400
634.437	56.066600
634.652	56.202394
634.867	56.325624
635.082	56.426622
635.297	56.655198
635.512	56.848960
635.727	56.977457
635.942	57.141443
636.157	57.474667
636.372	57.804548
636.587	57.998429
636.802	58.124155
637.017	58.161883
637.232	58.163490
637.447	58.331335
637.662	58.347484
637.876	58.351997
638.091	58.272987
638.306	58.205296
638.521	58.173866
638.736	58.051781
638.951	57.990327
639.165	58.171256
639.380	58.396409
639.595	58.542815
639.809	58.830352
640.024	59.215316
640.239	59.318186
640.453	59.672369
640.668	60.126432
640.883	60.144099
641.097	60.332356
641.312	60.584341
641.526	60.736303
641.741	60.952737
641.955	61.268925
642.170	61.534673
642.384	61.725116
642.599	62.002281
642.813	62.169666
643.028	62.304830
643.242	62.748060
643.457	62.944453
643.671	63.288488
643.885	63.830192
644.100	64.247047
644.314	64.425245
644.528	64.363967
644.743	64.608756
644.957	65.029545
645.171	65.209814
645.386	65.021300
645.600	64.897989
645.814	64.953497
646.028	64.948023
646.242	64.701980
646.457	64.373019
646.671	64.061802
646.885	64.036706
647.099	63.942284
647.313	63.939531
647.527	64.221150
647.741	64.603190
647.955	64.806336
648.169	64.863976
648.383	64.753246
648.597	64.811093
648.811	65.349668
649.025	66.071699
649.239	66.293013
649.453	66.117519
649.667	65.878681
649.881	65.666601
650.095	65.678066
650.309	65.818179
650.523	65.993982
650.737	66.107041
650.950	66.120060
651.164	65.891376
651.378	65.568317
651.592	65.547852
651.805	65.814101
652.019	65.998804
652.233	66.061920
652.447	66.033464
652.660	66.015960
652.874	66.181435
653.088	66.550529
653.301	66.878106
653.515	67.050372
653.728	67.184720
653.942	67.198304
654.156	67.257489
654.369	67.470416
654.583	67.740446
654.796	68.044900
655.010	68.217051
655.223	68.127339
655.437	68.021708
655.650	68.096202
655.863	68.317527
656.077	68.516889
656.290	68.782970
656.504	68.798043
656.717	68.721904
656.930	68.787049
657.144	68.933492
657.357	69.089017
657.570	69.178577
657.783	69.204301
657.997	69.289814
658.210	69.322581
658.423	69.426249
658.636	69.603248
658.849	69.845615
659.063	69.991911
659.276	69.964169
659.489	69.835981
659.702	69.829028
659.915	69.828850
660.128	69.759170
660.341	69.601949
660.554	69.526645
660.767	69.451133
660.980	69.268155
661.193	69.306505
661.406	69.285996
661.619	69.203111
661.832	69.506664
662.045	69.801275
662.258	70.242212
662.471	70.631273
662.684	70.823965
662.897	71.079888
663.110	71.367332
663.322	71.740019
663.535	72.052199
663.748	72.343087
663.961	72.775709
664.174	72.862373
664.386	72.700795
664.599	72.447171
664.812	72.271266
665.024	72.328960
665.237	72.203310
665.450	72.122831
665.662	72.182557
665.875	72.157714
666.088	72.365336
666.300	72.507721
666.513	72.628529
666.725	72.760035
666.938	73.197964
667.150	73.842226
667.363	74.256701
667.575	74.739984
667.788	75.295958
668.000	75.707058
668.213	75.799732
668.425	75.658686
668.638	75.707544
668.850	75.738915
669.062	75.919562
669.275	75.989142
669.487	75.789656
669.699	75.475295
669.912	75.313674
670.124	75.119119
670.336	74.932070
670.548	75.168085
670.761	75.475578
670.973	75.477331
671.185	75.437410
671.397	75.270135
671.609	74.945868
671.822	74.854246
672.034	75.076047
672.246	75.161768
672.458	75.174432
672.670	75.165552
672.882	75.064033
673.094	74.874598
673.306	74.780950
673.518	74.890461
673.730	74.911568
673.942	74.858251
674.154	74.906891
674.366	74.891673
674.578	75.011302
674.790	75.200320
675.002	75.224178
675.214	75.096449
675.425	75.114174
675.637	75.063339
675.849	74.830306
676.061	74.838418
676.273	75.001748
676.484	75.035804
676.696	75.202423
676.908	75.429573
677.120	75.511150
677.331	75.630184
677.543	75.850367
677.755	75.866367
677.966	75.921384
678.178	76.183861
678.389	76.585491
678.601	76.931797
678.813	77.192773
679.024	77.162922
679.236	76.989273
679.447	77.049305
679.659	77.252412
679.870	77.414197
680.082	77.610377
680.293	77.756434
680.505	77.669406
680.716	77.471499
680.927	77.390015
681.139	77.300013
681.350	77.358085
681.562	77.204137
681.773	76.871226
681.984	76.629380
682.196	76.404673
682.407	76.505995
682.618	76.942513
682.829	77.184057
683.041	77.234204
683.252	77.321793
683.463	77.540694
683.674	77.636349
683.885	77.801790
684.097	77.934483
684.308	77.865945
684.519	77.752178
684.730	77.493410
684.941	77.117464
685.152	77.197889
685.363	77.491942
685.574	77.376996
685.785	76.998546
685.996	76.669646
686.207	76.506258
686.418	76.682499
686.629	77.214918
686.840	77.791802
687.051	78.208321
687.262	78.321059
687.473	78.076596
687.684	77.722538
687.894	77.792474
688.105	78.218384
688.316	78.606864
688.527	78.672640
688.738	78.316922
688.948	77.547641
689.159	76.730547
689.370	75.960335
689.580	75.600757
689.791	75.730144
690.002	75.984250
690.212	76.186676
690.423	76.111448
690.634	76.186387
690.844	76.565800
691.055	77.121513
691.266	77.651747
691.476	78.228342
691.687	78.762760
691.897	78.959898
692.108	79.003494
692.318	79.043348
692.529	78.865217
692.739	78.629007
692.949	78.219413
693.160	78.012472
693.370	77.975693
693.581	77.970990
693.791	77.915585
694.001	78.132658
694.212	78.637898
694.422	78.948319
694.632	79.107211
694.843	79.482099
695.053	80.114778
695.263	80.594552
695.473	80.639984
695.683	80.505778
695.894	80.507023
696.104	80.538782
696.314	80.322588
696.524	79.896458
696.734	79.526549
696.944	79.359885
697.154	79.050353
697.365	78.437008
697.575	78.073537
697.785	77.949007
697.995	77.816047
698.205	77.673002
698.415	77.762011
698.625	78.054016
698.834	78.245009
699.044	78.331181
699.254	78.423068
699.464	78.555971
699.674	78.536615
699.884	78.509701
700.094	78.640314
700.304	78.980318
700.513	79.110899
700.723	78.794859
700.933	78.446548
701.143	78.433198
701.353	78.544337
701.562	78.487052
701.772	78.372231
701.982	78.517678
702.191	78.549666
702.401	78.402531
702.611	78.062232
702.820	78.231481
703.030	78.636510
703.239	78.824755
703.449	78.970535
703.659	78.995814
703.868	78.831721
704.078	78.995335
704.287	79.371111
704.497	79.833439
704.706	80.066793
704.916	80.171823
705.125	79.938423
705.334	79.679829
705.544	79.371774
705.753	78.707854
705.962	78.332611
706.172	78.219233
706.381	77.732347
706.590	77.126130
706.800	76.567620
707.009	76.220664
707.218	75.795317
707.428	75.420043
707.637	75.250274
707.846	75.208472
708.055	75.301900
708.264	75.393622
708.474	75.604908
708.683	75.804476
708.892	75.907375
709.101	76.059130
709.310	76.223425
709.519	76.659717
709.728	77.007217
709.937	77.121648
710.146	77.184781
710.355	77.187062
710.564	77.075775
710.773	77.042829
710.982	77.492408
711.191	78.081849
711.400	78.674386
711.609	79.148648
711.818	79.361425
712.027	79.406742
712.235	79.603309
712.444	79.902036
712.653	79.993845
712.862	79.914580
713.071	79.613059
713.279	79.088657
713.488	78.700883
713.697	78.315188
713.906	77.933827
714.114	77.707459
714.323	77.550842
714.532	77.221821
714.740	76.841251
714.949	76.798010
715.157	76.824639
715.366	76.783774
715.575	76.807684
715.783	76.934957
715.992	77.058038
716.200	77.179031
716.409	77.172112
716.617	77.437664
716.826	77.894622
717.034	78.299791
717.242	78.574356
717.451	78.700213
717.659	78.769989
717.868	78.794203
718.076	78.857725
718.284	78.836139
718.493	78.704740
718.701	78.715100
718.909	78.544604
719.118	78.015966
719.326	77.450246
719.534	77.045990
719.742	77.093190
719.951	77.367432
720.159	77.569387
720.367	77.572376
720.575	77.465498
720.783	77.352543
720.991	77.343325
721.199	77.439636
721.408	77.793579
721.616	78.306298
721.824	78.907537
722.032	79.273086
722.240	79.393038
722.448	79.364176
722.656	79.090712
722.864	78.936737
723.072	78.941849
723.280	78.735452
723.487	78.451126
723.695	78.088376
723.903	77.620210
724.111	77.082176
724.319	76.569993
724.527	76.119138
724.735	75.776532
724.942	75.660387
725.150	75.640521
725.358	75.640250
725.566	75.867175
725.773	76.240812
725.981	76.610994
726.189	76.827240
726.396	76.835277
726.604	76.741793
726.812	76.627741
727.019	76.651840
727.227	76.718522
727.435	76.922223
727.642	77.093550
727.850	76.987355
728.057	76.568241
728.265	76.084565
728.472	75.766981
728.680	75.721101
728.887	75.715252
729.095	75.759998
729.302	75.819482
729.509	75.752308
729.717	75.352786
729.924	74.962271
730.132	74.932572
730.339	75.138514
730.546	75.493456
730.753	76.029044
730.961	76.315272
731.168	76.486916
731.375	76.823621
731.583	76.935114
731.790	76.828651
731.997	76.851046
732.204	76.902067
732.411	76.572099
732.618	76.050189
732.826	75.663814
733.033	75.334661
733.240	75.173419
733.447	75.156998
733.654	75.080099
733.861	75.213212
734.068	75.379700
734.275	75.399261
734.482	75.309730
734.689	75.509630
734.896	76.110127
735.103	76.548127
735.310	76.594625
735.517	76.531748
735.724	76.436562
735.931	76.254923
736.137	75.991242
736.344	75.749508
736.551	75.675316
736.758	75.446559
736.965	74.729901
737.171	73.527274
737.378	72.433361
737.585	71.996581
737.792	71.884037
737.998	71.773125
738.205	71.674655
738.412	71.374738
738.618	71.081118
738.825	70.779806
739.032	70.765148
739.238	71.020120
739.445	71.359103
739.651	71.670741
739.858	71.856139
740.064	71.976509
740.271	72.048490
740.477	72.031159
740.684	72.063141
740.890	72.112490
741.097	72.120793
741.303	72.097575
741.510	72.164260
741.716	72.408207
741.922	72.708421
742.129	72.695447
742.335	72.430936
742.541	72.407275
742.748	72.444152
742.954	72.451809
743.160	72.396575
743.366	72.293871
743.573	72.186182
743.779	72.088125
743.985	72.009348
744.191	71.916464
744.397	71.995128
744.604	72.241421
744.810	72.129551
745.016	71.964886
745.222	71.964418
745.428	72.142958
745.634	72.289160
745.840	72.232203
746.046	71.888977
746.252	71.373170
746.458	70.937566
746.664	70.578239
746.870	70.203216
747.076	70.137948
747.282	70.367429
747.488	70.516554
747.694	70.541917
747.900	70.443564
748.105	70.493077
748.311	70.788851
748.517	71.139678
748.723	71.459976
748.929	71.762446
749.134	72.061417
749.340	72.101217
749.546	71.926896
749.752	71.815510
749.957	71.802882
750.163	72.037575
750.369	72.164898
750.574	72.016455
750.780	71.642740
750.985	71.473308
751.191	71.399556
751.397	71.240070
751.602	71.052002
751.808	70.601386
752.013	70.017764
752.219	69.648983
752.424	69.544219
752.630	69.599148
752.835	69.790183
753.041	70.196686
753.246	70.384358
753.451	70.326688
753.657	70.220718
753.862	70.078422
754.067	70.217164
754.273	70.582079
754.478	70.580718
754.683	70.333039
754.889	69.912997
755.094	69.269073
755.299	68.869880
755.504	68.513755
755.710	68.349090
755.915	68.344470
756.120	68.407005
756.325	68.455756
756.530	68.275345
756.735	67.965113
756.940	67.523425
757.146	67.176960
757.351	67.200826
757.556	67.159578
757.761	67.194874
757.966	67.125223
758.171	66.823763
758.376	66.512192
758.581	66.165410
758.786	65.925442
758.990	65.954954
759.195	66.189080
759.400	66.392327
759.605	66.259860
759.810	66.072324
760.015	65.854767
760.220	65.394245
760.424	65.040829
760.629	64.612576
760.834	64.129696
761.039	63.714863
761.244	63.530486
761.448	63.495517
761.653	63.614283
761.858	63.935633
762.062	64.038407
762.267	64.041895
762.472	64.022850
762.676	63.744066
762.881	63.535261
763.085	63.299357
763.290	63.066147
763.494	62.575965
763.699	61.984539
763.903	61.351306
764.108	60.781912
764.312	60.312360
764.517	59.847212
764.721	59.648051
764.926	59.781475
765.130	60.137372
765.335	60.444369
765.539	60.505061
765.743	60.586513
765.948	60.562523
766.152	60.501330
766.356	60.216083
766.560	60.049725
766.765	59.956346
766.969	59.801091
767.173	59.661793
767.377	59.408001
767.582	59.210910
767.786	59.222925
767.990	59.236709
768.194	59.152285
768.398	59.187960
768.602	59.356045
768.806	59.491545
769.010	59.531188
769.215	59.463876
769.419	59.418882
769.623	59.471410
769.827	59.363090
770.031	59.030838
770.234	58.642956
770.438	58.430455
770.642	57.997065
770.846	57.610653
771.050	57.250441
771.254	56.816923
771.458	56.587711
771.662	56.375389
771.866	56.004089
772.069	55.839554
772.273	55.729610
772.477	55.542020
772.681	55.190986
772.885	54.967602
773.088	54.825373
773.292	54.620601
773.496	54.477519
773.699	54.368423
773.903	54.334518
774.107	54.128936
774.310	53.667381
774.514	53.145216
774.717	52.747749
774.921	52.388674
775.124	52.064557
775.328	51.876126
775.531	51.752395
775.735	51.679054
775.938	51.503631
776.142	51.060657
776.345	50.761455
776.549	50.794670
776.752	51.049905
776.956	51.416452
777.159	51.723868
777.362	51.868735
777.566	51.758327
777.769	51.584787
777.972	51.324717
778.176	50.919736
778.379	50.514256
778.582	50.228615
778.785	49.854428
778.989	49.271294
779.192	48.461546
779.395	47.744348
779.598	47.103947
779.801	46.582558
780.004	46.109404
780.207	45.645018
780.411	45.252605
780.614	44.859429
780.817	44.489995
781.020	44.143355
781.223	43.973511
781.426	43.965809
781.629	43.952641
781.832	43.955903
782.035	44.009913
782.238	43.955326
782.440	43.773330
782.643	43.489399
782.846	43.355605
783.049	43.239132
783.252	43.077958
783.455	42.868913
783.658	42.637383
783.860	42.386058
784.063	42.181370
784.266	41.792699
784.469	41.369092
784.671	40.985248
784.874	40.726500
785.077	40.508931
785.279	40.090783
785.482	39.807963
785.685	39.531478
785.887	39.223839
786.090	38.940726
786.293	38.585179
786.495	38.268666
786.698	38.008948
786.900	37.753392
787.103	37.483679
787.305	37.024709
787.508	36.652396
787.710	36.470398
787.913	36.296559
788.115	35.932399
788.317	35.502252
788.520	35.055521
788.722	34.587146
788.924	34.153126
789.127	33.766303
789.329	33.486127
789.531	33.290833
789.734	32.998283
789.936	32.418241
790.138	32.011581
790.340	31.709029
790.543	31.316144
790.745	30.983990
790.947	30.745954
791.149	30.661624
791.351	30.585677
791.553	30.316423
791.756	30.056955
791.958	29.937421
792.160	29.831915
792.362	29.627132
792.564	29.413174
792.766	29.228840
792.968	28.985245
793.170	28.559885
793.372	27.989095
793.574	27.466265
793.776	27.006325
793.978	26.547452
794.180	25.966746
794.381	25.367270
794.583	24.715989
794.785	24.182388
794.987	23.814369
795.189	23.472520
795.391	23.147830
795.592	22.840963
795.794	22.505084
795.996	22.193999
796.198	21.883773
796.399	21.649858
796.601	21.410128
796.803	21.132750
797.004	20.896890
797.206	20.606855
797.407	20.312558
797.609	20.023786
797.811	19.585317
798.012	19.303321
798.214	18.986684
798.415	18.598784
798.617	18.335279
798.818	18.108901
799.020	17.878160
799.221	17.587190
799.423	17.197042
799.624	16.789296
799.826	16.465725
800.027	16.294041
800.228	15.982449
800.430	15.680192
800.631	15.432736
800.832	15.092940
801.034	14.804798
801.235	14.623855
801.436	14.427993
801.637	14.322024
801.839	14.258602
802.040	14.163441
802.241	14.018682
802.442	13.813663
802.643	13.667579
802.844	13.498661
803.046	13.298015
803.247	13.001141
803.448	12.680280
803.649	12.465007
803.850	12.250854
804.051	12.028404
804.252	11.760508
804.453	11.463093
804.654	11.303309
804.855	11.004683
805.056	10.864122
805.257	10.696083
805.458	10.554199
805.659	10.416777
805.859	10.234186
806.060	10.076093
806.261	9.905616
806.462	9.697335
806.663	9.599010
806.864	9.440332
807.064	9.385818
807.265	9.251800
807.466	9.217355
807.667	9.196330
807.867	9.046147
808.068	8.859643
808.269	8.796027
808.469	8.673342
808.670	8.686736
808.870	8.609984
809.071	8.551345
809.272	8.431664
809.472	8.339795
809.673	8.181056
809.873	8.068365
810.074	7.988957
810.274	7.931366
810.475	7.831262
810.675	7.860564
810.876	7.865006
811.076	7.915327
811.276	7.924524
811.477	7.959154
811.677	7.970787
811.878	7.996527
812.078	7.961905
812.278	7.899228
812.479	7.898990
812.679	7.945363
812.879	7.953016
813.079	7.881986
813.280	7.787898
813.480	7.779251
813.680	7.740913
813.880	7.730603
814.080	7.870085
814.280	7.965419
814.480	8.144510
814.681	8.251817
814.881	8.249800
815.081	8.226376
815.281	8.291658
815.481	8.437012
815.681	8.543365
815.881	8.803910
816.081	8.924759
816.281	8.851404
816.481	8.926653
816.681	9.058524
816.880	9.193827
817.080	9.364304
817.280	9.575510
817.480	9.798686
817.680	9.873216
817.880	9.980706
818.080	9.987754
818.279	10.149123
818.479	10.351138
818.679	10.532547
818.879	10.784293
819.078	10.972670
819.278	11.079807
819.478	11.131940
819.677	11.242214
819.877	11.544511
820.077	11.798562
820.276	12.045595
820.476	12.218829
820.675	12.459275
820.875	12.646889
821.074	12.685662
821.274	12.803973
821.473	12.982701
821.673	13.153478
821.872	13.270323
822.072	13.356913
822.271	13.460053
822.471	13.696777
822.670	13.912122
822.869	14.088047
823.069	14.384993
823.268	14.680448
823.467	14.907029
823.667	15.232207
823.866	15.531199
824.065	15.768808
824.265	15.962836
824.464	16.099973
824.663	16.260197
824.862	16.598813
825.061	17.013844
825.261	17.122936
825.460	17.199277
825.659	17.504251
825.858	17.734221
826.057	18.010460
826.256	18.289552
826.455	18.548984
826.654	18.938521
826.853	19.232229
827.052	19.364593
827.251	19.600906
827.450	19.949793
827.649	20.269708
827.848	20.397348
828.047	20.702391
828.246	20.968053
828.445	21.111073
828.644	21.260834
828.843	21.386046
829.041	21.606503
829.240	21.908811
829.439	22.038600
829.638	22.243476
829.836	22.520002
830.035	22.799559
830.234	22.935231
830.433	23.194491
830.631	23.705434
830.830	24.301750
831.029	24.710378
831.227	24.961024
831.426	25.228793
831.624	25.494266
831.823	25.771244
832.022	25.976789
832.220	26.010773
832.419	26.151347
832.617	26.270387
832.816	26.330617
833.014	26.300511
833.213	26.486106
833.411	26.810168
833.609	27.135439
833.808	27.484794
834.006	27.910065
834.205	28.321143
834.403	28.983836
834.601	29.567529
834.800	30.128185
834.998	30.627933
835.196	30.881533
835.394	30.952639
835.593	31.119111
835.791	31.134632
835.989	31.074682
836.187	30.910442
836.385	30.945542
836.584	30.939672
836.782	30.988234
836.980	31.042811
837.178	31.222694
837.376	31.593493
837.574	32.068104
837.772	32.457588
837.970	32.933307
838.168	33.332931
838.366	33.731845
838.564	34.081239
838.762	34.279634
838.960	34.379169
839.158	34.557761
839.356	34.738545
839.554	34.831939
839.752	34.947198
839.949	34.958763
840.147	34.943514
840.345	35.106246
840.543	35.251818
840.741	35.383703
840.938	35.730156
841.136	36.069124
841.334	36.416177
841.532	36.461217
841.729	36.586671
841.927	36.848421
842.125	37.062248
842.322	37.284745
842.520	37.570158
842.718	37.956823
842.915	38.299675
843.113	38.597821
843.310	39.001355
843.508	39.329516
843.705	39.932344
843.903	40.562335
844.100	40.863454
844.298	40.961379
844.495	41.002821
844.693	40.991037
844.890	40.903510
845.087	40.952127
845.285	40.983250
845.482	40.965186
845.679	40.966513
845.877	40.842694
846.074	40.876049
846.271	41.260313
846.469	41.859863
846.666	42.459480
846.863	43.129198
847.060	43.872617
847.257	44.547715
847.455	44.930457
847.652	45.083949
847.849	45.204026
848.046	45.370511
848.243	45.357635
848.440	45.384079
848.637	45.250045
848.834	45.035959
849.031	44.957506
849.228	44.801226
849.425	44.460125
849.622	44.318037
849.819	44.347659
850.016	44.740584
850.213	45.031699
850.410	45.176147
850.607	45.052010
850.804	45.266274
851.001	45.725510
851.198	45.883526
851.394	46.093483
851.591	46.455271
851.788	47.071836
851.985	47.591911
852.181	47.602040
852.378	47.478492
852.575	47.524609
852.772	47.610508
852.968	47.591732
853.165	47.400926
853.362	47.292218
853.558	47.125259
853.755	47.198831
853.951	47.259889
854.148	47.443295
854.345	47.627287
854.541	47.938128
854.738	48.398198
854.934	48.840432
855.131	49.265466
855.327	49.813653
855.523	50.572474
855.720	51.248491
855.916	51.468050
856.113	51.510012
856.309	51.550874
856.505	51.702588
856.702	52.070430
856.898	52.197014
857.094	52.055486
857.291	52.112047
857.487	52.103326
857.683	52.104619
857.879	52.334365
858.076	52.614151
858.272	52.888438
858.468	53.197691
858.664	53.533771
858.860	53.709770
859.056	53.948095
859.253	54.726814
859.449	55.295286
859.645	55.894250
859.841	56.197518
860.037	56.317171
860.233	56.394445
860.429	56.728769
860.625	57.064626
860.821	57.311179
861.017	57.586502
861.213	57.769352
861.409	57.644164
861.604	57.178085
861.800	56.602978
861.996	56.118898
862.192	55.767839
862.388	55.641425
862.584	55.506767
862.779	55.269159
862.975	54.987906
863.171	54.600237
863.367	54.442406
863.562	54.315506
863.758	54.324070
863.954	54.369805
864.149	54.650901
864.345	55.099166
864.541	55.557262
864.736	55.708779
864.932	56.028060
865.127	56.333001
865.323	56.751253
865.518	57.286715
865.714	57.847854
865.910	58.772137
866.105	59.451076
866.300	59.511803
866.496	59.375855
866.691	59.253327
866.887	59.368933
867.082	59.439099
867.277	59.542340
867.473	59.820828
867.668	59.967117
867.864	59.804672
868.059	59.389739
868.254	59.292672
868.449	59.738699
868.645	60.279607
868.840	60.925145
869.035	61.414325
869.230	61.853717
869.425	62.446110
869.621	62.692671
869.816	62.741554
870.011	62.830264
870.206	62.868148
870.401	62.957677
870.596	62.891798
870.791	62.647399
870.986	62.400777
871.181	62.241637
871.376	61.725740
871.571	61.220379
871.766	60.857615
871.961	60.668875
872.156	60.615556
872.351	60.487878
872.546	60.481955
872.741	60.192454
872.936	59.823931
873.130	59.680860
873.325	59.672274
873.520	60.081406
873.715	60.454214
873.910	60.694526
874.104	60.584065
874.299	60.646034
874.494	61.117172
874.688	61.666091
874.883	62.394155
875.078	63.391256
875.272	63.916016
875.467	63.940819
875.662	63.549194
875.856	63.135543
876.051	62.934683
876.245	63.039133
876.440	63.141160
876.634	62.902552
876.829	62.532539
877.023	62.374219
877.218	62.215680
877.412	62.091043
877.607	61.874530
877.801	61.471985
877.995	61.009802
878.190	60.750398
878.384	60.891727
878.578	60.970262
878.773	61.417256
878.967	61.861566
879.161	62.201713
879.356	62.756871
879.550	62.985142
879.744	63.264264
879.938	63.907908
880.133	64.751907
880.327	65.260183
880.521	65.472862
880.715	65.684258
880.909	65.701348
881.103	65.892922
881.297	66.243061
881.491	65.997396
881.685	66.132587
881.880	66.610115
882.073	66.819435
882.267	66.689910
882.461	66.839992
882.655	67.068465
882.849	67.261332
883.043	67.582062
883.237	67.467202
883.431	66.793312
883.625	66.341240
883.819	66.078185
884.013	65.699656
884.206	65.422870
884.400	65.317681
884.594	65.365126
884.788	65.382165
884.982	65.876831
885.175	66.016652
885.369	66.273797
885.563	66.803238
885.756	67.005010
885.950	66.983061
886.144	67.173454
886.337	67.863887
886.531	68.392796
886.724	68.707391
886.918	69.140672
887.112	68.892819
887.305	68.882848
887.499	68.791283
887.692	68.647082
887.885	68.975247
888.079	69.237167
888.272	69.479137
888.466	69.481416
888.659	69.596992
888.853	69.473359
889.046	68.821087
889.239	68.445907
889.433	68.023800
889.626	67.428855
889.819	66.811161
890.013	66.078446
890.206	65.492053
890.399	64.821471
890.592	64.121114
890.785	63.794632
890.979	63.768968
891.172	64.076782
891.365	64.168089
891.558	64.243774
891.751	64.507781
891.944	65.069612
892.137	65.850584
892.330	66.448290
892.524	66.913507
892.717	67.621222
892.910	67.986675
893.103	68.188424
893.296	68.283933
893.488	68.469964
893.681	68.370126
893.874	68.479224
894.067	68.912156
894.260	69.454657
894.453	70.328005
894.646	70.895310
894.839	71.309983
895.031	71.778325
895.224	72.311859
895.417	72.685462
895.610	73.196962
895.802	73.713501
895.995	73.947668
896.188	73.379337
896.381	72.363681
896.573	71.717266
896.766	71.929300
896.958	72.222421
897.151	72.419150
897.344	72.525877
897.536	72.829055
897.729	72.655702
897.921	72.644415
898.114	72.335764
898.306	72.579302
898.499	73.100322
898.691	73.385555
898.884	72.891943
899.076	72.097923
899.269	71.464174
899.461	71.055171
899.653	70.720203
899.846	70.659480
900.038	70.365312
900.230	70.624894
900.423	70.540599
900.615	70.528223
900.807	70.231789
901.000	70.340404
901.192	70.611657
901.384	70.597907
901.576	70.097354
901.768	69.622835
901.961	69.479573
902.153	69.768617
902.345	69.957277
902.537	70.241097
902.729	70.337954
902.921	70.561196
903.113	70.477531
903.305	70.710862
903.497	71.214592
903.689	72.271223
903.881	73.018802
904.073	73.428484
904.265	73.572530
904.457	73.998288
904.649	74.428614
904.841	74.582848
905.033	74.546223
905.224	74.883229
905.416	74.900882
905.608	74.551171
905.800	74.068050
905.992	74.204544
906.183	74.403905
906.375	74.717626
906.567	74.874243
906.759	75.029134
906.950	75.404928
907.142	75.452800
907.334	75.042433
907.525	74.923566
907.717	74.921084
907.909	74.918735
908.100	74.319454
908.292	73.950418
908.483	73.648950
908.675	73.126867
908.866	72.713813
909.058	72.427003
909.249	72.251886
909.441	72.448155
909.632	72.642928
909.824	72.714863
910.015	72.368884
910.206	72.361851
910.398	72.486879
910.589	72.774609
910.780	73.213869
910.972	73.733455
911.163	73.866733
911.354	74.104016
911.546	74.471043
911.737	74.780946
911.928	75.023517
912.119	75.374863
912.310	75.913601
912.502	76.113494
912.693	76.346310
912.884	76.613787
913.075	76.183156
913.266	76.018298
913.457	76.425745
913.648	76.404410
913.839	75.878824
914.030	75.623736
914.221	75.479596
914.412	75.188213
914.603	75.275624
914.794	75.013032
914.985	74.568305
915.176	74.749823
915.367	75.000830
915.558	74.691309
915.749	74.683255
915.940	74.961553
916.130	75.217894
916.321	75.659447
916.512	76.134488
916.703	75.889306
916.893	75.717966
917.084	75.640390
917.275	75.424542
917.466	75.040989
917.656	75.015494
917.847	74.840975
918.038	74.089535
918.228	73.359323
918.419	73.105016
918.609	72.534228
918.800	72.619489
918.990	72.668599
919.181	72.747979
919.372	72.695779
919.562	72.705449
919.753	72.635652
919.943	72.708021
920.133	73.474676
920.324	74.885090
920.514	75.694956
920.705	76.366261
920.895	76.410296
921.085	76.309658
921.276	76.008100
921.466	75.703643
921.656	75.615982
921.847	75.138276
922.037	74.543102
922.227	74.196586
922.417	73.643809
922.608	73.500924
922.798	73.306618
922.988	73.627978
923.178	73.986188
923.368	74.551769
923.558	75.263884
923.748	75.481641
923.939	75.834662
924.129	76.072568
924.319	76.044472
924.509	76.319025
924.699	76.273210
924.889	76.467813
925.079	76.360533
925.269	76.216851
925.459	75.918329
925.648	76.283391
925.838	77.103703
926.028	77.499646
926.218	78.105385
926.408	78.253956
926.598	77.806651
926.788	77.606842
926.977	77.306324
927.167	77.122112
927.357	77.451059
927.547	77.814804
927.736	77.699517
927.926	77.220540
928.116	77.106895
928.305	77.200846
928.495	77.759059
928.685	77.513801
928.874	77.304209
929.064	77.448904
929.253	77.377453
929.443	77.033981
929.633	77.041044
929.822	76.822674
930.012	76.973349
930.201	77.704976
930.391	77.885706
930.580	77.585141
930.769	78.197242
930.959	78.395508
931.148	78.291891
931.338	77.989533
931.527	77.573659
931.716	76.892827
931.906	76.236417
932.095	75.278664
932.284	73.860429
932.474	73.333942
932.663	73.491940
932.852	73.240913
933.041	72.926416
933.230	72.751003
933.420	73.136692
933.609	73.446319
933.798	73.696583
933.987	73.724709
934.176	73.931484
934.365	74.411328
934.554	74.400142
934.743	74.248784
934.932	74.142534
935.121	74.284988
935.310	74.564795
935.499	74.692663
935.688	75.147729
935.877	76.129066
936.066	77.379706
936.255	78.441551
936.444	79.313789
936.633	79.692464
936.822	79.603850
937.010	79.704785
937.199	79.525917
937.388	79.542807
937.577	79.408093
937.766	78.764604
937.954	77.554623
938.143	76.704027
938.332	75.877744
938.520	74.905375
938.709	74.337887
938.898	73.855508
939.086	73.678371
939.275	73.540085
939.464	72.909130
939.652	72.681828
939.841	72.731089
940.029	72.900265
940.218	73.304555
940.406	73.524202
940.595	73.552399
940.783	73.662846
940.972	73.941808
941.160	73.666953
941.349	73.842787
941.537	74.068877
941.725	74.303197
941.914	74.321600
942.102	74.017274
942.290	73.567941
942.479	73.901645
942.667	74.660906
942.855	75.110659
943.043	75.406516
943.232	75.859733
943.420	76.446007
943.608	77.342115
943.796	77.810594
943.984	78.097219
944.172	78.086860
944.361	78.019045
944.549	77.420038
944.737	76.862366
944.925	76.767497
945.113	76.904585
945.301	77.586804
945.489	77.691854
945.677	77.333333
945.865	77.131547
946.053	77.278332
946.241	77.756413
946.429	77.976767
946.617	78.365435
946.805	78.848891
946.992	78.946663
947.180	78.923792
947.368	78.316359
947.556	78.110367
947.744	78.126565
947.931	78.251477
948.119	78.003637
948.307	78.225157
948.495	78.354885
948.682	78.139278
948.870	77.740017
949.058	77.981423
949.245	78.070405
949.433	78.474613
949.621	78.543326
949.808	78.843779
949.996	78.715522
950.183	79.103705
950.371	79.390491
950.558	79.633815
950.746	80.410299
950.933	80.791227
951.121	80.482639
951.308	80.827521
951.496	80.493176
951.683	79.938026
951.870	79.432177
952.058	79.212271
952.245	79.401863
952.433	79.504042
952.620	79.823297
952.807	79.700232
952.994	79.851791
953.182	79.759878
953.369	79.211997
953.556	79.144026
953.743	79.336310
953.931	79.276561
954.118	79.544004
954.305	79.126306
954.492	78.500491
954.679	77.938634
954.866	77.745833
955.053	77.109815
955.240	76.810727
955.427	77.088030
955.615	77.766918
955.802	78.098047
955.989	78.159844
956.175	77.736061
956.362	77.414662
956.549	77.270545
956.736	77.116044
956.923	76.494353
957.110	76.334165
957.297	76.617242
957.484	76.854047
957.671	76.252499
957.857	75.684831
958.044	75.843357
958.231	76.177040
958.418	76.472973
958.604	76.966634
958.791	77.458714
958.978	77.908671
959.165	78.675764
959.351	79.014331
959.538	78.473573
959.724	78.615305
959.911	79.351449
960.098	79.607122
960.284	80.122549
960.471	80.410041
960.657	80.734919
960.844	80.793784
961.030	81.182395
961.217	81.470982
961.403	82.009112
961.590	82.907929
961.776	83.686158
961.963	84.066095
962.149	84.385709
962.335	84.341026
962.522	84.423604
962.708	84.522289
962.894	84.654119
963.081	84.902277
963.267	84.880272
963.453	84.300134
963.639	83.909848
963.826	83.169899
964.012	81.927883
964.198	80.895731
964.384	80.483637
964.570	80.652838
964.756	79.560340
964.943	79.009052
965.129	78.522436
965.315	78.592694
965.501	78.510209
965.687	78.565829
965.873	78.443735
966.059	79.148288
966.245	79.660905
966.431	79.066650
966.617	78.794482
966.803	79.373606
966.989	79.567744
967.174	79.532415
967.360	79.013264
967.546	79.040031
967.732	78.724490
967.918	78.760061
968.104	78.604266
968.289	78.678043
968.475	79.215901
968.661	79.261895
968.847	79.916825
969.032	80.881011
969.218	81.353113
969.404	82.106606
969.589	82.651812
969.775	83.269395
969.961	83.632985
970.146	84.282350
970.332	84.604788
970.517	85.265236
970.703	85.506195
970.888	84.663245
971.074	83.478706
971.260	83.063711
971.445	82.896906
971.630	83.615413
971.816	84.289620
972.001	84.376822
972.187	83.696240
972.372	83.710719
972.557	83.341381
972.743	83.316271
972.928	83.863317
973.113	84.184815
973.299	84.673271
973.484	84.352416
973.669	83.003551
973.854	81.902015
974.040	81.936925
974.225	82.312793
974.410	82.711073
974.595	83.145890
974.780	83.079807
974.965	82.716621
975.151	83.109420
975.336	82.837821
975.521	83.154707
975.706	83.634781
975.891	83.078906
976.076	82.875704
976.261	82.275523
976.446	80.862772
976.631	80.215874
976.816	79.515381
977.001	78.805273
977.186	78.301799
977.370	78.114793
977.555	78.305605
977.740	78.803279
977.925	79.691438
978.110	79.164694
978.295	79.897600
978.479	81.543006
978.664	82.573773
978.849	83.479347
979.034	84.303458
979.218	84.697199
979.403	85.569467
979.588	85.740403
979.772	84.967139
979.957	84.868551
980.141	85.805340
980.326	85.670424
980.511	84.626495
980.695	83.571441
980.880	83.012014
981.064	82.952984
981.249	82.054197
981.433	80.389196
981.618	79.129580
981.802	78.658604
981.987	77.995450
982.171	76.986902
982.355	76.418985
982.540	75.790796
982.724	75.837264
982.908	76.357807
983.093	76.834197
983.277	78.364678
983.461	80.009218
983.646	81.208046
983.830	82.694316
984.014	84.246271
984.198	85.319365
984.382	85.398923
984.567	86.516935
984.751	86.700943
984.935	87.038184
985.119	86.520779
985.303	85.190149
985.487	84.208480
985.671	83.425855
985.855	82.440213
986.039	82.086433
986.223	82.061637
986.407	82.853316
986.591	83.077115
986.775	83.921549
986.959	84.054353
987.143	83.849009
987.327	84.680290
987.511	85.469715
987.695	85.933887
987.879	86.191236
988.062	85.745065
988.246	85.851757
988.430	86.235591
988.614	86.408221
988.797	85.781751
988.981	85.277064
989.165	86.256152
989.349	85.828151
989.532	85.593712
989.716	85.075788
989.900	85.063945
990.083	85.098391
990.267	84.250055
990.450	84.210081
990.634	84.137750
990.817	84.684974
991.001	85.304928
991.184	84.464607
991.368	85.141858
991.551	86.425522
991.735	87.774110
991.918	88.332162
992.102	89.475580
992.285	91.293223
992.469	91.534403
992.652	91.362676
992.835	90.757753
993.019	90.275960
993.202	91.347572
993.385	91.938799
993.568	91.441259
993.752	91.304886
993.935	91.120700
994.118	90.104496
994.301	88.768424
994.484	87.671756
994.668	87.727394
994.851	88.177415
995.034	88.337760
995.217	88.607771
995.400	88.076437
995.583	87.233363
995.766	86.929838
995.949	86.451721
996.132	87.337221
996.315	88.791935
996.498	89.343386
996.681	89.722816
996.864	89.444902
997.047	89.130267
997.230	87.789699
997.413	87.303940
997.596	87.786433
997.778	87.516283
997.961	87.816458
998.144	86.914861
998.327	85.282302
998.510	84.745550
998.692	83.780645
998.875	83.326515
999.058	83.498443
999.241	84.107419
999.423	83.990173
999.606	83.551959
999.789	84.037907
999.971	83.996361
1000.154	84.262345
1000.336	85.013685
1000.519	85.326534
1000.701	85.681496
1000.884	86.998314
1001.067	87.821728
1001.249	88.134725
1001.431	88.427727
1001.614	88.676406
1001.796	87.928570
1001.979	87.618161
1002.161	87.959108
1002.344	87.998119
1002.526	88.200706
1002.708	87.720918
1002.891	86.851559
1003.073	86.207664
1003.255	86.029608
1003.438	86.541594
1003.620	86.965997
1003.802	87.257427
1003.984	87.853318
1004.166	87.259224
1004.349	87.329877
1004.531	87.236607
1004.713	87.610578
1004.895	87.830748
1005.077	88.061560
1005.259	88.227979
1005.441	88.101791
1005.623	88.082708
1005.805	88.624194
1005.987	88.461956
1006.169	88.713472
1006.351	89.195328
1006.533	90.001046
1006.715	90.311510
1006.897	90.467988
1007.079	91.268770
1007.261	92.244654
1007.443	92.368544
1007.625	92.502880
1007.806	92.031735
1007.988	92.080761
1008.170	92.236750
1008.352	91.006047
1008.534	90.372551
1008.715	91.350119
1008.897	91.550481
1009.079	90.706178
1009.260	90.011400
1009.442	89.790606
1009.624	89.266596
1009.805	88.853661
1009.987	88.696093
1010.169	88.757746
1010.350	89.086022
1010.532	88.693150
1010.713	87.379933
1010.895	86.786869
1011.076	86.507409
1011.258	86.514631
1011.439	87.843392
1011.621	88.762005
1011.802	89.070842
1011.983	89.225409
1012.165	90.065981
1012.346	90.596994
1012.527	90.468402
1012.709	90.525410
1012.890	91.196487
1013.071	91.550071
1013.253	91.547310
1013.434	90.516540
1013.615	89.455553
1013.796	89.494265
1013.978	89.508975
1014.159	89.022666
1014.340	88.843983
1014.521	89.514813
1014.702	89.989339
1014.883	89.707753
1015.064	89.650386
1015.245	89.459351
1015.427	89.538739
1015.608	89.952979
1015.789	89.861912
1015.970	89.279361
1016.151	88.792825
1016.332	88.066717
1016.512	87.041994
1016.693	86.678090
1016.874	86.742381
1017.055	87.062509
1017.236	87.142690
1017.417	87.289941
1017.598	87.018568
1017.779	87.690617
1017.959	88.987835
1018.140	89.653470
1018.321	90.722923
1018.502	91.510577
1018.682	91.585474
1018.863	90.758197
1019.044	89.945613
1019.224	90.346236
1019.405	90.617306
1019.586	90.303252
1019.766	89.757326
1019.947	89.031989
1020.127	88.181720
1020.308	87.028004
1020.488	87.269127
1020.669	88.410328
1020.849	90.171507
1021.030	90.779050
1021.210	90.797719
1021.391	89.900231
1021.571	90.840962
1021.752	91.598028
1021.932	91.918055
1022.112	92.292507
1022.293	93.450955
1022.473	93.600075
1022.653	92.650964
1022.834	91.400637
1023.014	90.725935
1023.194	89.733077
1023.374	90.526451
1023.555	90.946660
1023.735	90.178615
1023.915	89.942998
1024.095	88.729048
1024.275	87.646153
1024.455	87.570605
1024.635	88.461154
1024.816	89.315606
1024.996	90.535859
1025.176	91.088823
1025.356	89.945263
1025.536	88.813695
1025.716	88.669482
1025.896	88.682656
1026.076	90.487620
1026.256	91.673838
1026.436	91.944821
1026.615	91.458450
1026.795	90.410105
1026.975	90.520933
1027.155	91.367791
1027.335	91.697196
1027.515	91.648094
1027.695	91.759972
1027.874	92.431247
1028.054	91.241567
1028.234	91.034937
1028.413	91.036540
1028.593	91.790930
1028.773	92.838502
1028.953	91.606366
1029.132	89.924352
1029.312	90.408301
1029.491	91.241648
1029.671	92.061985
1029.851	91.937321
1030.030	93.010330
1030.210	93.858723
1030.389	94.592580
1030.569	94.032791
1030.748	94.129968
1030.928	95.124121
1031.107	95.759670
1031.286	95.526852
1031.466	95.607353
1031.645	94.680519
1031.825	93.613069
1032.004	93.358701
1032.183	93.299356
1032.363	92.639122
1032.542	92.586783
1032.721	91.749992
1032.900	89.653027
1033.080	89.896402
1033.259	90.031762
1033.438	88.772561
1033.617	88.068342
1033.796	87.776564
1033.975	87.983687
1034.155	86.555682
1034.334	86.769715
1034.513	87.228776
1034.692	87.527428
1034.871	88.657110
1035.050	86.905842
1035.229	86.192687
1035.408	85.994317
1035.587	87.121089
1035.766	88.875542
1035.945	88.782526
1036.124	88.662544
1036.303	87.769097
1036.481	86.624816
1036.660	86.720638
1036.839	87.630052
1037.018	89.578070
1037.197	89.308236
1037.376	90.172737
1037.554	90.307791
1037.733	88.948175
1037.912	88.863104
1038.091	89.867794
1038.269	90.647538
1038.448	90.253775
1038.627	89.641235
1038.805	87.687899
1038.984	86.177836
1039.162	85.893779
1039.341	85.748028
1039.520	85.878370
1039.698	86.499492
1039.877	85.477781
1040.055	85.097291
1040.234	85.304600
1040.412	85.858929
1040.591	85.557369
1040.769	86.372979
1040.947	87.218078
1041.126	87.889411
1041.304	87.684178
1041.483	86.251384
1041.661	86.036963
1041.839	86.437369
1042.017	84.309685
1042.196	82.989008
1042.374	82.804733
1042.552	83.269738
1042.730	83.365566
1042.909	83.550597
1043.087	83.541235
1043.265	83.575725
1043.443	84.354445
1043.621	83.966146
1043.799	83.809312
1043.978	85.397363
1044.156	85.609280
1044.334	85.531915
1044.512	85.410620
1044.690	84.915218
1044.868	85.044022
1045.046	85.371538
1045.224	85.974802
1045.402	85.684912
1045.580	86.430120
1045.758	87.109817
1045.935	87.352732
1046.113	87.253642
1046.291	86.822607
1046.469	86.211085
1046.647	86.477444
1046.825	86.109291
1047.002	85.769764
1047.180	85.453617
1047.358	85.820408
1047.536	84.930944
1047.713	84.696766
1047.891	85.386021
1048.069	85.950979
1048.246	86.264797
1048.424	86.185065
1048.602	86.037009
1048.779	86.188884
1048.957	86.555008
1049.134	86.682773
1049.312	87.304008
1049.489	87.732112
1049.667	87.102773
1049.844	86.560542
1050.022	86.375484
1050.199	86.712311
1050.377	87.709204
1050.554	87.839373
1050.731	86.914141
1050.909	86.206132
1051.086	85.148614
1051.263	83.973116
1051.441	84.224978
1051.618	84.414850
1051.795	83.530431
1051.973	82.979562
1052.150	83.174006
1052.327	82.938881
1052.504	82.995692
1052.681	83.931691
1052.859	85.002736
1053.036	86.050424
1053.213	86.464958
1053.390	86.191980
1053.567	86.789741
1053.744	87.642988
1053.921	87.957676
1054.098	86.963272
1054.275	86.869448
1054.452	87.353068
1054.629	87.264543
1054.806	86.411109
1054.983	86.517784
1055.160	87.783828
1055.337	88.675889
1055.514	87.745576
1055.691	87.016556
1055.868	87.564927
1056.044	88.783275
1056.221	88.895971
1056.398	89.141276
1056.575	89.827371
1056.751	90.567682
1056.928	89.784756
1057.105	88.719544
1057.282	88.490683
1057.458	89.684161
1057.635	90.468007
1057.812	90.509811
1057.988	90.195159
1058.165	89.520146
1058.341	88.451864
1058.518	87.365483
1058.694	86.897294
1058.871	87.383470
1059.047	87.098070
1059.224	86.640555
1059.401	86.629042
1059.577	86.363903
1059.753	86.374713
1059.930	86.294788
1060.106	86.216037
1060.282	86.260171
1060.459	86.412882
1060.635	86.100887
1060.812	85.613897
1060.988	86.036538
1061.164	86.517263
1061.340	86.319772
1061.517	86.219090
1061.693	85.713886
1061.869	85.365075
1062.045	85.578882
1062.221	85.897592
1062.398	85.901300
1062.574	85.552218
1062.750	85.605062
1062.926	84.813496
1063.102	84.321485
1063.278	83.280343
1063.454	82.735153
1063.630	82.608229
1063.806	82.634767
1063.982	82.602391
1064.158	82.485312
1064.334	83.204684
1064.510	84.177720
1064.686	84.271798
1064.862	84.183474
1065.038	84.196404
1065.214	84.440230
1065.389	85.568122
1065.565	85.671449
1065.741	85.512671
1065.917	86.205530
1066.093	86.206681
1066.268	85.451646
1066.444	85.212299
1066.620	85.228917
1066.795	85.525837
1066.971	84.870619
1067.147	84.340797
1067.322	82.777338
1067.498	82.222020
1067.673	82.313224
1067.849	81.668130
1068.025	81.835985
1068.200	81.830297
1068.376	81.189114
1068.551	81.390888
1068.727	82.588623
1068.902	83.320180
1069.078	83.112085
1069.253	83.739549
1069.428	84.309865
1069.604	84.498127
1069.779	85.668215
1069.954	86.371909
1070.130	86.792614
1070.305	87.572298
1070.480	88.203571
1070.656	87.434675
1070.831	86.626963
1071.006	87.159592
1071.181	86.940911
1071.357	87.377946
1071.532	87.697724
1071.707	86.353657
1071.882	84.737345
1072.057	84.148507
1072.232	83.369528
1072.407	81.708897
1072.582	81.095715
1072.757	81.580734
1072.932	81.228796
1073.107	80.971324
1073.282	80.648429
1073.457	80.611426
1073.632	81.442931
1073.807	82.234922
1073.982	82.607462
1074.157	82.909266
1074.332	82.714246
1074.507	82.315999
1074.682	81.429589
1074.856	82.030770
1075.031	83.002494
1075.206	82.096083
1075.381	81.001444
1075.556	80.292015
1075.730	80.251854
1075.905	80.217761
1076.080	80.244409
1076.254	80.243131
1076.429	80.404070
1076.604	81.224527
1076.778	80.983526
1076.953	79.491862
1077.127	79.589225
1077.302	79.305078
1077.477	78.973208
1077.651	78.961076
1077.826	78.475477
1078.000	78.207894
1078.175	78.921705
1078.349	79.540667
1078.523	79.038931
1078.698	78.828198
1078.872	79.595360
1079.047	80.721297
1079.221	82.196776
1079.395	82.870447
1079.570	83.095791
1079.744	82.920533
1079.918	82.965017
1080.092	83.285940
1080.267	82.969548
1080.441	83.027892
1080.615	83.184361
1080.789	83.017420
1080.963	81.859561
1081.137	80.842591
1081.312	80.038640
1081.486	78.895543
1081.660	78.968482
1081.834	78.752937
1082.008	78.495014
1082.182	78.454725
1082.356	78.460796
1082.530	78.574505
1082.704	78.586847
1082.878	79.056795
1083.052	79.568349
1083.226	79.749559
1083.400	80.559483
1083.573	80.364023
1083.747	80.067476
1083.921	79.776350
1084.095	79.455773
1084.269	78.935645
1084.443	79.368758
1084.616	80.316054
1084.790	80.515584
1084.964	79.957880
1085.138	79.647119
1085.311	79.231850
1085.485	79.408891
1085.659	79.344326
1085.832	79.331516
1086.006	79.436142
1086.179	80.378364
1086.353	80.006445
1086.527	79.416337
1086.700	79.137140
1086.874	79.786548
1087.047	80.582780
1087.221	80.677448
1087.394	80.710317
1087.568	81.192983
1087.741	81.178401
1087.914	81.249492
1088.088	80.718392
1088.261	79.868255
1088.435	78.785236
1088.608	77.888397
1088.781	76.833574
1088.954	76.507681
1089.128	76.535500
1089.301	76.752821
1089.474	75.920035
1089.647	75.208098
1089.821	74.768226
1089.994	74.266738
1090.167	74.561760
1090.340	74.946875
1090.513	75.310315
1090.686	75.752767
1090.859	75.471664
1091.032	74.731928
1091.206	73.559486
1091.379	73.032211
1091.552	73.078613
1091.725	72.819408
1091.898	72.568269
1092.071	72.905623
1092.244	73.209416
1092.416	73.509779
1092.589	73.511443
1092.762	73.184548
1092.935	73.323161
1093.108	73.895270
1093.281	74.108511
1093.453	74.033944
1093.626	73.778596
1093.799	73.813220
1093.972	73.377371
1094.145	73.366653
1094.317	73.341670
1094.490	73.506681
1094.663	73.786996
1094.835	73.813913
1095.008	74.011781
1095.181	75.019862
1095.353	75.755162
1095.526	76.250586
1095.698	76.342368
1095.871	76.112496
1096.043	76.294984
1096.216	76.188679
1096.388	75.736233
1096.561	75.997181
1096.733	76.549027
1096.906	75.829767
1097.078	74.316206
1097.250	73.446607
1097.423	73.211000
1097.595	73.102402
1097.768	72.917361
1097.940	72.238873
1098.112	71.719402
1098.284	71.724337
1098.457	70.832529
1098.629	70.018249
1098.801	70.593770
1098.973	71.795806
1099.146	72.038592
1099.318	71.541984
1099.490	71.254200
1099.662	71.291940
1099.834	71.536705
1100.006	71.924701
1100.178	71.814660
1100.350	71.883154
1100.522	71.698803
1100.694	71.156790
1100.866	70.230570
1101.038	70.028833
1101.210	70.692757
1101.382	71.309315
1101.554	71.237108
1101.726	70.656424
1101.898	70.072559
1102.070	69.926434
1102.241	70.105061
1102.413	70.604003
1102.585	70.237371
1102.757	70.119996
1102.929	70.547962
1103.100	70.665811
1103.272	70.048635
1103.444	69.958770
1103.616	70.237562
1103.787	69.945080
1103.959	69.578629
1104.130	69.355019
1104.302	68.392575
1104.474	68.290732
1104.645	68.411043
1104.817	68.261173
1104.988	67.724240
1105.160	67.773368
1105.331	67.659315
1105.503	67.791635
1105.674	68.095050
1105.846	68.326024
1106.017	68.775036
1106.189	69.320203
1106.360	69.539673
1106.531	69.575014
1106.703	68.520013
1106.874	68.111564
1107.045	67.876951
1107.217	67.850050
1107.388	67.066948
1107.559	66.361248
1107.730	65.825788
1107.902	64.651201
1108.073	64.730612
1108.244	65.055414
1108.415	64.767505
1108.586	65.209276
1108.757	65.640915
1108.929	65.597261
1109.100	65.275505
1109.271	65.135163
1109.442	64.914561
1109.613	64.727856
1109.784	65.390984
1109.955	65.000782
1110.126	64.255801
1110.297	64.230324
1110.468	63.987655
1110.639	63.945374
1110.809	64.195540
1110.980	64.009322
1111.151	63.845936
1111.322	64.378832
1111.493	64.230587
1111.664	63.550109
1111.834	63.553728
1112.005	63.586523
1112.176	63.727983
1112.347	63.822775
1112.517	63.927972
1112.688	63.807153
1112.859	64.014269
1113.029	64.323423
1113.200	64.523539
1113.371	65.235017
1113.541	65.647179
1113.712	65.840410
1113.882	66.020568
1114.053	66.048882
1114.223	66.614102
1114.394	66.372665
1114.564	66.128947
1114.735	66.809938
1114.905	66.908464
1115.076	66.099555
1115.246	65.869596
1115.416	65.805971
1115.587	65.102156
1115.757	64.648005
1115.927	64.866569
1116.098	64.643096
1116.268	64.348434
1116.438	64.529724
1116.609	63.889997
1116.779	63.749627
1116.949	64.211002
1117.119	63.769118
1117.289	63.444049
1117.459	63.904660
1117.630	64.045337
1117.800	63.692573
1117.970	63.547007
1118.140	63.171954
1118.310	62.778358
1118.480	62.698096
1118.650	62.185162
1118.820	62.102717
1118.990	62.172157
1119.160	61.943192
1119.330	61.554102
1119.500	61.315732
1119.670	61.210880
1119.840	60.678365
1120.010	60.852858
1120.179	61.028120
1120.349	60.594403
1120.519	60.491851
1120.689	59.767579
1120.859	59.391606
1121.028	59.108571
1121.198	58.503542
1121.368	58.334844
1121.538	58.420599
1121.707	58.386799
1121.877	58.155144
1122.047	57.553053
1122.216	57.353570
1122.386	57.819472
1122.555	58.339593
1122.725	58.778555
1122.894	59.029638
1123.064	59.250644
1123.233	59.497157
1123.403	58.882101
1123.573	58.477128
1123.742	58.036090
1123.911	57.754480
1124.081	57.775999
1124.250	56.990121
1124.419	56.140148
1124.589	55.271046
1124.758	54.707728
1124.927	54.717491
1125.097	54.427439
1125.266	54.690600
1125.435	54.922127
1125.605	54.983681
1125.774	54.720351
1125.943	54.746030
1126.112	55.148376
1126.281	55.576358
1126.450	55.981850
1126.620	56.359908
1126.789	56.361116
1126.958	55.961020
1127.127	55.460730
1127.296	55.139845
1127.465	55.053990
1127.634	55.367980
1127.803	55.418482
1127.972	55.191538
1128.141	54.984305
1128.310	55.028959
1128.479	55.260735
1128.648	55.173620
1128.817	54.910433
1128.985	54.353500
1129.154	54.467285
1129.323	54.655392
1129.492	54.454826
1129.661	53.913379
1129.829	53.603825
1129.998	53.580471
1130.167	53.586584
1130.336	53.379835
1130.504	53.103136
1130.673	53.129305
1130.842	53.676928
1131.010	53.217977
1131.179	52.545465
1131.347	52.499315
1131.516	52.493647
1131.685	52.599789
1131.853	52.499898
1132.022	51.712770
1132.190	51.161054
1132.359	51.076168
1132.527	51.001616
1132.696	50.298098
1132.864	50.050591
1133.032	50.060637
1133.201	49.630904
1133.369	49.529069
1133.537	49.434682
1133.706	49.533066
1133.874	49.649028
1134.042	49.402953
1134.211	49.284969
1134.379	49.602075
1134.547	50.071630
1134.715	50.120462
1134.884	50.302114
1135.052	50.727895
1135.220	50.586514
1135.388	50.203544
1135.556	49.775360
1135.724	49.401594
1135.892	49.570598
1136.060	49.678824
1136.228	48.746678
1136.396	48.053570
1136.564	47.751691
1136.732	47.195527
1136.900	47.013139
1137.068	46.965234
1137.236	47.421956
1137.404	47.261084
1137.572	47.229706
1137.740	47.089788
1137.908	46.936984
1138.076	47.329068
1138.243	47.798044
1138.411	47.914902
1138.579	47.976734
1138.747	47.132010
1138.914	46.708492
1139.082	45.990001
1139.250	45.864328
1139.417	45.711128
1139.585	45.478031
1139.753	45.157149
1139.920	44.786120
1140.088	44.612195
1140.256	44.869620
1140.423	44.747251
1140.591	45.251947
1140.758	45.145281
1140.926	45.339922
1141.093	45.739505
1141.261	45.916569
1141.428	46.174951
1141.596	46.498179
1141.763	46.607653
1141.930	46.506572
1142.098	46.354097
1142.265	46.331821
1142.432	46.468724
1142.600	46.775439
1142.767	46.960663
1142.934	46.761304
1143.102	47.104244
1143.269	47.061806
1143.436	46.727374
1143.603	46.690082
1143.771	46.632260
1143.938	46.771430
1144.105	46.952244
1144.272	46.474277
1144.439	46.058101
1144.606	45.418345
1144.773	44.452260
1144.940	43.391303
1145.107	43.127978
1145.274	43.147833
1145.441	43.250089
1145.608	43.070666
1145.775	42.546741
1145.942	42.253805
1146.109	42.650522
1146.276	43.039115
1146.443	42.996712
1146.610	43.589550
1146.776	44.336898
1146.943	44.077604
1147.110	43.426828
1147.277	42.809150
1147.444	42.136354
1147.610	42.106694
1147.777	41.916612
1147.944	41.390670
1148.110	41.412165
1148.277	41.168080
1148.444	40.202091
1148.610	39.304362
1148.777	39.117919
1148.944	39.274476
1149.110	39.321746
1149.277	39.532241
1149.443	39.238993
1149.610	39.048492
1149.776	38.387303
1149.943	37.641051
1150.109	37.798792
1150.276	38.548559
1150.442	39.374984
1150.608	39.643501
1150.775	40.016018
1150.941	39.951954
1151.107	40.076211
1151.274	40.541484
1151.440	40.671122
1151.606	41.346365
1151.773	41.353212
1151.939	40.946264
1152.105	40.476867
1152.271	39.630009
1152.438	39.145916
1152.604	38.106157
1152.770	37.878612
1152.936	37.686243
1153.102	37.048184
1153.268	36.506085
1153.434	36.088674
1153.600	35.939162
1153.766	36.226234
1153.932	35.959875
1154.098	36.024155
1154.264	35.769295
1154.430	35.797413
1154.596	35.485232
1154.762	35.127756
1154.928	34.723964
1155.094	34.765760
1155.260	34.757395
1155.426	34.548538
1155.591	34.186759
1155.757	34.722877
1155.923	34.832567
1156.089	35.197997
1156.255	35.460000
1156.420	35.276926
1156.586	35.004489
1156.752	35.016208
1156.917	35.128781
1157.083	35.053009
1157.249	34.744829
1157.414	34.330400
1157.580	33.972505
1157.745	34.063136
1157.911	33.590082
1158.076	33.371494
1158.242	33.452420
1158.407	33.485981
1158.573	33.708405
1158.738	33.500819
1158.904	33.562475
1159.069	34.018516
1159.235	34.114865
1159.400	33.984652
1159.565	33.816538
1159.731	34.086509
1159.896	34.034633
1160.061	34.109714
1160.227	34.437435
1160.392	34.116383
1160.557	33.965024
1160.722	33.928391
1160.888	33.956330
1161.053	34.332744
1161.218	34.669622
1161.383	34.607789
1161.548	34.288187
1161.713	34.227951
1161.878	34.316168
1162.043	34.583504
1162.208	35.102303
1162.374	35.132819
1162.539	34.752613
1162.704	34.300269
1162.869	33.716972
1163.033	33.304217
1163.198	33.116472
1163.363	32.645896
1163.528	32.318416
1163.693	32.349353
1163.858	31.561151
1164.023	30.879715
1164.188	31.047161
1164.353	31.148440
1164.517	31.170829
1164.682	31.857723
1164.847	31.782734
1165.011	31.167619
1165.176	31.711264
1165.341	32.134670
1165.506	31.933905
1165.670	32.123547
1165.835	32.014896
1166.000	31.433824
1166.164	30.850875
1166.329	30.273163
1166.493	29.205414
1166.658	28.830442
1166.822	29.095742
1166.987	29.000636
1167.151	28.798518
1167.316	29.036075
1167.480	29.225121
1167.645	29.769460
1167.809	29.833053
1167.973	29.989598
1168.138	30.561912
1168.302	31.437856
1168.466	31.755476
1168.631	31.483001
1168.795	31.153671
1168.959	30.859928
1169.124	29.889059
1169.288	28.998645
1169.452	28.216261
1169.616	28.042903
1169.780	27.994045
1169.944	27.788471
1170.109	27.146203
1170.273	26.989880
1170.437	27.120351
1170.601	26.694053
1170.765	26.163836
1170.929	25.864739
1171.093	26.247719
1171.257	26.210600
1171.421	26.105386
1171.585	26.201687
1171.749	26.294733
1171.913	26.246031
1172.077	26.423132
1172.240	26.580126
1172.404	27.023222
1172.568	27.653518
1172.732	28.356575
1172.896	27.814939
1173.060	28.034056
1173.223	28.391290
1173.387	28.123250
1173.551	28.070528
1173.715	28.492315
1173.878	28.222913
1174.042	28.214116
1174.206	28.062191
1174.369	27.528918
1174.533	27.273238
1174.696	27.094416
1174.860	26.854403
1175.023	26.760485
1175.187	26.929486
1175.351	26.929764
1175.514	26.618160
1175.677	26.366510
1175.841	26.120445
1176.004	26.225875
1176.168	26.862725
1176.331	26.893754
1176.495	27.300746
1176.658	27.277318
1176.821	27.345646
1176.985	27.346887
1177.148	27.419791
1177.311	27.089967
1177.474	26.890157
1177.638	26.718912
1177.801	26.307277
1177.964	25.851233
1178.127	26.332347
1178.291	26.330928
1178.454	26.202567
1178.617	26.564795
1178.780	26.680329
1178.943	26.272457
1179.106	26.062189
1179.269	26.099470
1179.432	26.369786
1179.595	26.270820
1179.758	26.088361
1179.921	25.843456
1180.084	26.322131
1180.247	26.680323
1180.410	25.949871
1180.573	25.881727
1180.736	25.607628
1180.899	25.747111
1181.061	25.682746
1181.224	25.260283
1181.387	25.485708
1181.550	25.324902
1181.713	25.277228
1181.875	24.891124
1182.038	24.318790
1182.201	24.345174
1182.363	23.862890
1182.526	24.406343
1182.689	24.824255
1182.851	25.187097
1183.014	25.170642
1183.177	25.071744
1183.339	25.249553
1183.502	25.364789
1183.664	25.603076
1183.827	25.791315
1183.989	25.633946
1184.152	25.869424
1184.314	25.414836
1184.477	25.019687
1184.639	24.965216
1184.801	25.265114
1184.964	25.501415
1185.126	25.786338
1185.288	26.017769
1185.451	25.988327
1185.613	26.283931
1185.775	26.404252
1185.938	26.223417
1186.100	26.253665
1186.262	26.108001
1186.424	25.998171
1186.586	25.911495
1186.749	25.455404
1186.911	25.078734
1187.073	24.549956
1187.235	24.268352
1187.397	24.332189
1187.559	24.308733
1187.721	24.204670
1187.883	24.405856
1188.045	24.594009
1188.207	24.709968
1188.369	24.689564
1188.531	24.756507
1188.693	25.144143
1188.855	24.842778
1189.017	24.594379
1189.179	24.421401
1189.341	24.443946
1189.502	24.908328
1189.664	24.712642
1189.826	25.321354
1189.988	25.676118
1190.150	25.590281
1190.311	25.436925
1190.473	25.195900
1190.635	25.827193
1190.796	26.391813
1190.958	26.460909
1191.120	26.557888
1191.281	26.430412
1191.443	26.386148
1191.604	25.759064
1191.766	25.479558
1191.928	25.603647
1192.089	25.956501
1192.251	26.283242
1192.412	26.158315
1192.574	25.503897
1192.735	25.118974
1192.896	24.866916
1193.058	24.463479
1193.219	24.464082
1193.381	24.443778
1193.542	24.386500
1193.703	24.429803
1193.865	24.390822
1194.026	24.037340
1194.187	23.898274
1194.349	24.425196
1194.510	24.716006
1194.671	25.304116
1194.832	26.447559
1194.993	26.671856
1195.155	26.888414
1195.316	26.834765
1195.477	26.952529
1195.638	27.074692
1195.799	26.909439
1195.960	26.843798
1196.121	27.052541
1196.282	27.189813
1196.443	27.045669
1196.604	26.569974
1196.765	26.599928
1196.926	26.677758
1197.087	26.924695
1197.248	27.276028
1197.409	27.321688
1197.570	27.712912
1197.730	27.810996
1197.891	27.468217
1198.052	27.347839
1198.213	27.126313
1198.374	26.941396
1198.534	26.782999
1198.695	26.919474
1198.856	27.431672
1199.016	27.110226
1199.177	27.103986
1199.338	26.856671
1199.498	27.197039
1199.659	27.382425
1199.820	27.251950
1199.980	27.309588
1200.141	27.188299
1200.301	27.370546
1200.462	27.320482
1200.622	26.796043
1200.783	26.624438
1200.943	26.313414
1201.104	26.334345
1201.264	26.476007
1201.424	26.555530
1201.585	26.899669
1201.745	27.394866
1201.906	27.192450
1202.066	27.235045
1202.226	27.499232
1202.386	27.666568
1202.547	27.773954
1202.707	28.383644
1202.867	28.615327
1203.027	27.830078
1203.188	27.737138
1203.348	27.652535
1203.508	27.414799
1203.668	27.587387
1203.828	27.806649
1203.988	27.914325
1204.148	27.641403
1204.308	27.436178
1204.468	26.922055
1204.628	26.439800
1204.788	26.467565
1204.948	26.115508
1205.108	26.451460
1205.268	26.581249
1205.428	27.107559
1205.588	27.234110
1205.748	26.853678
1205.908	27.182713
1206.068	27.570142
1206.228	27.761906
1206.387	28.335498
1206.547	28.989920
1206.707	29.433800
1206.867	29.691747
1207.026	29.662785
1207.186	29.440267
1207.346	29.433493
1207.505	29.109034
1207.665	28.436074
1207.825	28.173396
1207.984	28.187085
1208.144	28.110268
1208.303	27.928860
1208.463	28.356222
1208.622	27.938101
1208.782	27.920404
1208.941	28.359351
1209.101	28.308797
1209.260	28.938995
1209.420	29.396871
1209.579	29.609778
1209.739	29.700620
1209.898	29.908730
1210.057	30.136885
1210.217	30.114811
1210.376	30.628329
1210.535	30.761627
1210.694	30.706696
1210.854	30.268197
1211.013	30.155524
1211.172	30.281484
1211.331	30.499061
1211.490	30.536205
1211.650	30.333329
1211.809	30.005982
1211.968	29.450289
1212.127	29.058106
1212.286	29.445370
1212.445	29.769564
1212.604	30.238710
1212.763	29.844472
1212.922	29.923751
1213.081	30.310895
1213.240	30.817922
1213.399	31.487574
1213.558	32.614762
1213.717	33.215273
1213.876	33.366906
1214.035	32.979914
1214.194	32.323910
1214.352	32.414146
1214.511	33.074366
1214.670	32.855651
1214.829	32.212643
1214.988	32.245820
1215.146	31.741690
1215.305	30.946170
1215.464	31.031569
1215.622	31.241936
1215.781	31.547545
1215.940	31.675380
1216.098	31.380002
1216.257	30.985343
1216.415	31.371993
1216.574	31.701873
1216.732	31.947233
1216.891	32.531150
1217.049	32.990923
1217.208	33.244877
1217.366	33.214467
1217.525	32.503846
1217.683	32.544766
1217.842	32.616587
1218.000	32.928792
1218.158	33.109614
1218.317	33.158601
1218.475	33.110731
1218.633	33.074297
1218.792	33.047947
1218.950	33.443996
1219.108	33.555073
1219.266	34.200837
1219.425	34.376941
1219.583	34.919127
1219.741	35.419183
1219.899	35.504870
1220.057	35.677200
1220.215	35.533064
1220.373	35.276953
1220.531	35.355151
1220.689	34.711628
1220.847	34.368514
1221.005	34.144940
1221.163	34.064956
1221.322	34.150608
1221.479	34.148120
1221.637	33.503028
1221.795	33.450744
1221.953	33.337189
1222.111	33.207613
1222.269	33.274313
1222.427	33.945604
1222.584	34.463713
1222.742	34.543862
1222.900	34.549007
1223.058	34.105273
1223.216	33.810171
1223.373	34.517219
1223.531	34.471745
1223.689	34.549530
1223.846	35.244670
1224.004	35.018163
1224.162	34.654793
1224.319	34.609144
1224.477	34.943063
1224.634	35.370324
1224.792	35.819476
1224.949	36.207527
1225.107	36.234744
1225.264	36.664834
1225.422	36.678467
1225.579	36.206845
1225.737	36.322911
1225.894	35.872442
1226.052	35.845810
1226.209	35.875034
1226.366	35.889433
1226.523	36.160983
1226.681	36.153966
1226.838	36.320871
1226.995	36.336256
1227.153	36.944469
1227.310	37.634340
1227.467	37.661058
1227.624	38.118097
1227.781	38.282810
1227.938	38.732155
1228.096	38.818576
1228.253	38.101293
1228.410	37.829259
1228.567	37.973508
1228.724	37.927755
1228.881	37.673819
1229.038	37.173959
1229.195	37.262759
1229.352	37.226126
1229.509	37.525212
1229.666	37.647422
1229.823	37.553501
1229.980	38.095446
1230.136	38.586693
1230.293	38.411069
1230.450	38.743740
1230.607	39.167566
1230.764	39.688249
1230.921	39.725913
1231.077	39.457634
1231.234	39.089315
1231.391	38.501236
1231.547	38.441266
1231.704	38.803164
1231.861	38.589634
1232.018	38.583887
1232.174	38.407654
1232.331	37.763523
1232.487	37.417572
1232.644	37.787688
1232.800	38.202228
1232.957	38.291222
1233.113	38.407820
1233.270	38.311957
1233.426	38.098780
1233.583	37.914140
1233.739	37.922282
1233.896	38.103170
1234.052	38.404541
1234.208	38.741550
1234.365	38.939239
1234.521	39.414652
1234.677	39.481832
1234.834	39.469133
1234.990	39.842021
1235.146	40.023055
1235.302	40.065378
1235.459	40.177221
1235.615	39.527790
1235.771	39.713692
1235.927	39.696816
1236.083	38.976685
1236.239	38.879811
1236.396	39.358034
1236.552	39.706073
1236.708	40.043567
1236.864	40.467030
1237.020	41.289208
1237.176	41.374173
1237.332	41.885069
1237.488	41.622245
1237.644	41.106281
1237.799	41.727323
1237.955	41.844793
1238.111	41.461786
1238.267	41.555968
1238.423	41.561474
1238.579	41.355036
1238.734	41.007463
1238.890	41.376740
1239.046	41.697630
1239.202	42.085640
1239.357	42.442172
1239.513	42.385156
1239.669	42.075658
1239.824	42.292691
1239.980	42.304969
1240.136	42.477797
1240.291	42.506579
1240.447	42.639391
1240.603	42.653943
1240.758	42.748175
1240.914	42.504605
1241.069	42.526556
1241.225	42.452348
1241.380	43.258175
1241.535	43.575843
1241.691	43.775593
1241.846	43.600182
1242.002	43.605695
1242.157	43.363026
1242.313	43.294823
1242.468	43.603814
1242.623	44.058449
1242.778	44.603556
1242.934	44.986102
1243.089	44.283805
1243.244	43.746888
1243.399	43.538287
1243.554	43.727402
1243.710	43.919414
1243.865	44.371715
1244.020	44.134319
1244.175	43.710242
1244.330	43.491531
1244.485	43.068594
1244.640	43.119510
1244.795	42.998302
1244.950	43.668635
1245.105	44.405514
1245.260	44.150319
1245.415	43.920170
1245.570	44.181054
1245.725	43.983846
1245.880	43.977713
1246.035	44.389738
1246.190	44.715079
1246.345	44.586085
1246.499	45.184200
1246.654	44.874886
1246.809	45.046055
1246.964	45.630176
1247.118	46.039805
1247.273	45.915244
1247.428	46.520919
1247.583	47.069592
1247.737	46.989380
1247.892	47.001149
1248.047	46.868079
1248.201	46.600116
1248.356	46.794491
1248.510	46.384224
1248.665	46.209004
1248.819	46.309948
1248.974	46.602929
1249.128	46.458849
1249.283	46.184510
1249.437	46.384516
1249.592	47.196126
1249.746	47.256335
1249.900	47.655639
1250.055	48.158961
1250.209	48.202267
1250.363	48.050149
1250.518	48.101299
1250.672	47.943192
1250.826	48.393690
1250.981	48.434051
1251.135	48.191618
1251.289	47.800774
1251.443	48.130154
1251.597	47.965464
1251.751	47.855831
1251.906	47.710410
1252.060	47.883525
1252.214	48.369168
1252.368	49.029045
1252.522	49.030975
1252.676	49.177070
1252.830	49.807851
1252.984	50.139842
1253.138	50.497168
1253.292	50.795933
1253.446	51.075835
1253.600	52.004823
1253.754	52.420879
1253.907	51.578078
1254.061	50.635625
1254.215	50.304092
1254.369	50.156283
1254.523	50.428169
1254.677	50.451158
1254.830	50.178806
1254.984	50.444518
1255.138	50.344407
1255.292	50.117071
1255.445	50.065262
1255.599	50.317312
1255.752	50.527862
1255.906	51.223180
1256.060	51.693623
1256.213	50.792665
1256.367	50.456846
1256.520	50.759101
1256.674	50.713068
1256.827	50.887186
1256.981	50.714091
1257.134	50.510923
1257.288	50.677748
1257.441	50.618701
1257.594	50.093828
1257.748	49.793725
1257.901	50.145096
1258.055	50.385655
1258.208	50.518830
1258.361	50.460434
1258.515	50.729433
1258.668	51.000640
1258.821	50.908873
1258.974	51.069691
1259.127	51.649980
1259.281	52.238752
1259.434	52.584490
1259.587	52.449484
1259.740	52.077880
1259.893	52.156059
1260.046	52.518022
1260.199	51.999162
1260.352	51.109483
1260.505	51.019191
1260.658	51.084293
1260.811	50.696402
1260.964	50.813910
1261.117	50.972678
1261.270	51.021001
1261.423	51.423315
1261.576	51.664849
1261.729	52.030974
1261.882	52.133054
1262.035	53.084909
1262.188	53.836660
1262.340	53.672472
1262.493	53.943407
1262.646	53.658604
1262.798	53.736793
1262.951	53.628027
1263.104	53.634153
1263.257	53.398051
1263.409	52.784162
1263.562	51.853276
1263.714	51.632072
1263.867	52.186657
1264.020	53.187858
1264.172	54.193112
1264.325	54.745750
1264.477	55.254449
1264.630	56.367482
1264.782	56.108371
1264.935	55.602895
1265.087	56.397078
1265.240	58.538298
1265.392	58.831227
1265.544	57.955574
1265.697	57.126347
1265.849	56.273911
1266.001	55.320623
1266.154	54.196311
1266.306	54.044080
1266.458	54.437273
1266.610	55.161389
1266.762	54.518589
1266.915	53.931288
1267.067	53.597723
1267.219	54.253247
1267.371	55.113330
1267.523	55.514142
1267.675	56.853740
1267.828	57.527723
1267.979	57.289196
1268.132	57.727907
1268.284	57.885735
1268.436	58.837011
1268.588	58.606879
1268.740	59.456892
1268.891	59.467706
1269.043	58.777213
1269.195	57.796697
1269.347	57.027283
1269.499	56.638919
1269.651	56.361360
1269.803	56.935779
1269.955	56.485691
1270.106	55.360754
1270.258	55.184569
1270.410	55.250453
1270.562	55.350618
1270.713	55.596970
1270.865	56.317927
1271.017	57.163707
1271.168	57.767057
1271.320	58.029936
1271.471	56.725497
1271.623	56.593594
1271.775	57.143204
1271.926	57.468103
1272.078	56.456832
1272.229	56.351844
1272.381	56.480101
1272.532	55.848944
1272.684	54.775848
1272.835	54.718275
1272.986	55.397909
1273.138	55.979249
1273.289	56.840182
1273.440	56.230561
1273.592	55.434223
1273.743	55.837566
1273.894	56.197621
1274.046	57.709681
1274.197	58.574619
1274.348	59.329154
1274.500	59.564925
1274.651	59.150897
1274.802	59.747124
>>>>>>>>>> END of Data <<<<<<<<<<
