Date	2025年07月03日木曜日 09時49分46秒
Spectrometers	SR401765
ダーク	使用
リファレンス	使用
積分時間[msec]	300
平均回数	1
ｽﾑｰｼﾞﾝｸﾞ	5
Electrical Dark	USE
ピクセル数	3648
計測モード	反射率
保存開始波長[nm]	598.495
保存終了波長[nm]	1274.802
保存ﾋﾟｯﾁ波長[nm]	全波長

>>>>>>>>>> Data Start <<<<<<<<<<<<
598.495	-81.724324
598.713	-81.724324
598.931	-81.724324
599.148	-81.724324
599.366	0.000000
599.584	0.000000
599.802	0.000000
600.020	0.000000
600.238	0.000000
600.455	-302.367375
600.673	-682.791257
600.891	28.431811
601.109	40.280411
601.326	41.454663
601.544	41.888967
601.762	41.773292
601.979	41.676455
602.197	41.958692
602.415	41.904799
602.632	41.864784
602.850	41.874182
603.067	41.852576
603.285	42.000939
603.502	42.104268
603.720	42.116150
603.938	42.250494
604.155	42.458661
604.372	42.643494
604.590	42.771968
604.807	42.926457
605.025	43.124388
605.242	43.513386
605.460	43.689412
605.677	43.716539
605.894	43.771107
606.112	43.906349
606.329	43.918523
606.546	44.008497
606.764	44.400270
606.981	44.614344
607.198	44.750082
607.415	44.777021
607.633	44.753543
607.850	45.079950
608.067	45.304485
608.284	45.350060
608.501	45.489126
608.718	45.631936
608.935	45.810253
609.153	45.778867
609.370	45.867332
609.587	46.071233
609.804	46.376701
610.021	46.613570
610.238	46.609216
610.455	46.723159
610.672	47.053500
610.889	47.451248
611.106	47.635037
611.323	47.763715
611.540	47.887678
611.756	48.078095
611.973	48.188981
612.190	48.302986
612.407	48.512766
612.624	48.781427
612.841	48.958252
613.057	48.992536
613.274	48.927904
613.491	49.022631
613.708	48.975790
613.925	49.060332
614.141	49.086186
614.358	49.282008
614.575	49.526303
614.791	49.691786
615.008	49.800484
615.225	50.047449
615.441	50.185165
615.658	50.202557
615.874	50.222866
616.091	50.449920
616.307	50.491751
616.524	50.592062
616.740	50.756794
616.957	50.814882
617.173	50.803777
617.390	50.916226
617.606	51.116322
617.823	51.456265
618.039	51.646127
618.256	51.984320
618.472	52.311315
618.688	52.801568
618.905	53.405371
619.121	53.702739
619.337	53.964346
619.554	54.376649
619.770	54.634957
619.986	54.655984
620.202	54.726739
620.419	54.999944
620.635	55.024207
620.851	55.209767
621.067	55.363689
621.283	55.253468
621.499	55.318876
621.716	55.709077
621.932	55.773811
622.148	55.816572
622.364	56.175744
622.580	56.563878
622.796	56.967754
623.012	57.327894
623.228	57.385527
623.444	57.546069
623.660	57.857034
623.876	58.171027
624.092	58.095703
624.308	58.380798
624.524	58.904998
624.740	59.155398
624.955	59.219684
625.171	59.182404
625.387	59.514670
625.603	60.002480
625.819	60.268331
626.034	60.377207
626.250	60.308293
626.466	60.581527
626.682	60.916319
626.897	60.996700
627.113	61.011459
627.329	60.992871
627.544	60.961628
627.760	61.043129
627.976	61.144922
628.191	61.253003
628.407	61.244706
628.623	61.411422
628.838	61.447669
629.054	61.415958
629.269	61.516792
629.485	61.647804
629.700	61.957296
629.916	62.338834
630.131	62.514934
630.347	62.624367
630.562	62.766012
630.777	63.100482
630.993	63.452088
631.208	63.813787
631.424	63.936378
631.639	63.929717
631.854	64.133040
632.070	64.342037
632.285	64.418820
632.500	64.423073
632.715	64.467436
632.931	64.642574
633.146	65.021940
633.361	65.435723
633.576	65.679437
633.791	66.006579
634.007	66.401330
634.222	66.586812
634.437	66.704793
634.652	66.900361
634.867	67.182334
635.082	67.356862
635.297	67.495795
635.512	67.305387
635.727	66.916710
635.942	66.629432
636.157	66.563147
636.372	66.672317
636.587	66.845465
636.802	66.906240
637.017	67.034198
637.232	67.064911
637.447	67.075275
637.662	67.033295
637.876	67.349991
638.091	67.737758
638.306	67.934460
638.521	67.981882
638.736	67.942998
638.951	67.868802
639.165	67.975973
639.380	67.920428
639.595	67.709607
639.809	67.633295
640.024	67.774269
640.239	67.764816
640.453	67.838512
640.668	68.102030
640.883	68.281544
641.097	68.526937
641.312	68.906952
641.526	69.257020
641.741	69.810187
641.955	70.651744
642.170	71.221343
642.384	71.482831
642.599	71.541595
642.813	71.554808
643.028	71.660161
643.242	71.820638
643.457	71.872498
643.671	72.039367
643.885	72.177363
644.100	72.066694
644.314	71.784918
644.528	71.855063
644.743	72.115181
644.957	72.360748
645.171	72.571479
645.386	72.590572
645.600	72.714781
645.814	72.824675
646.028	72.760886
646.242	72.510276
646.457	72.405927
646.671	72.285919
646.885	72.118297
647.099	72.009469
647.313	72.192448
647.527	72.480736
647.741	72.816342
647.955	72.964746
648.169	72.963260
648.383	72.942339
648.597	73.234233
648.811	73.697679
649.025	74.289073
649.239	74.570061
649.453	74.527754
649.667	74.397979
649.881	74.129758
650.095	73.908907
650.309	73.916353
650.523	74.003657
650.737	73.909335
650.950	73.756260
651.164	73.565630
651.378	73.458188
651.592	73.464923
651.805	73.382705
652.019	73.045129
652.233	72.869789
652.447	72.830225
652.660	72.705782
652.874	72.769690
653.088	73.008921
653.301	73.200055
653.515	73.406308
653.728	73.295515
653.942	73.093827
654.156	73.249655
654.369	73.680154
654.583	73.938581
654.796	74.099411
655.010	74.344571
655.223	74.471096
655.437	74.627976
655.650	74.767225
655.863	74.829357
656.077	75.001245
656.290	75.361558
656.504	75.568451
656.717	75.731849
656.930	75.980833
657.144	76.160506
657.357	76.154265
657.570	76.056808
657.783	75.849138
657.997	75.689847
658.210	75.686159
658.423	75.810491
658.636	75.937531
658.849	76.098715
659.063	76.138335
659.276	76.330929
659.489	76.769166
659.702	77.075999
659.915	77.182048
660.128	77.213726
660.341	77.272790
660.554	77.295572
660.767	77.198316
660.980	77.124725
661.193	77.118661
661.406	77.129767
661.619	76.922573
661.832	76.693233
662.045	76.860432
662.258	77.142424
662.471	77.481036
662.684	77.804818
662.897	77.917413
663.110	77.971988
663.322	78.104495
663.535	78.237497
663.748	78.266561
663.961	78.538921
664.174	78.739489
664.386	78.577273
664.599	78.454474
664.812	78.385212
665.024	78.509562
665.237	78.578254
665.450	78.585013
665.662	78.623384
665.875	78.583813
666.088	78.815814
666.300	78.948348
666.513	78.894603
666.725	78.826989
666.938	79.007305
667.150	79.376100
667.363	79.419679
667.575	79.575116
667.788	79.904734
668.000	80.083482
668.213	80.127945
668.425	80.107482
668.638	79.984936
668.850	79.873665
669.062	79.891163
669.275	79.851555
669.487	79.612029
669.699	79.358509
669.912	79.261080
670.124	79.202545
670.336	79.249458
670.548	79.534429
670.761	79.749886
670.973	80.061681
671.185	80.345453
671.397	80.439399
671.609	80.493491
671.822	80.772727
672.034	81.242439
672.246	81.632449
672.458	81.773140
672.670	81.595680
672.882	81.468278
673.094	81.362528
673.306	81.203562
673.518	81.209755
673.730	81.325411
673.942	81.271606
674.154	81.103626
674.366	80.772102
674.578	80.414613
674.790	80.297734
675.002	80.375045
675.214	80.279710
675.425	80.149253
675.637	79.975265
675.849	79.797970
676.061	79.677270
676.273	79.543955
676.484	79.589828
676.696	79.839961
676.908	80.076831
677.120	80.257071
677.331	80.441632
677.543	80.626261
677.755	80.730247
677.966	80.805150
678.178	81.001821
678.389	81.451679
678.601	81.912419
678.813	81.900017
679.024	81.698052
679.236	81.576978
679.447	81.573941
679.659	81.865911
679.870	82.084667
680.082	82.043869
680.293	81.817353
680.505	81.470078
680.716	81.155850
680.927	81.113538
681.139	81.362626
681.350	81.669540
681.562	81.872005
681.773	81.860206
681.984	81.572012
682.196	81.181961
682.407	81.276946
682.618	81.853194
682.829	81.998384
683.041	81.858093
683.252	81.870602
683.463	82.006765
683.674	82.062705
683.885	82.117684
684.097	82.214278
684.308	82.358782
684.519	82.548970
684.730	82.502403
684.941	82.429253
685.152	83.012313
685.363	83.683805
685.574	83.742075
685.785	83.270118
685.996	82.770321
686.207	82.588701
686.418	82.822457
686.629	83.084610
686.840	83.249285
687.051	83.372690
687.262	83.117415
687.473	82.654007
687.684	82.195788
687.894	82.023619
688.105	82.295972
688.316	82.660598
688.527	82.532253
688.738	82.091339
688.948	81.480962
689.159	80.996272
689.370	80.596678
689.580	80.646804
689.791	80.803864
690.002	80.834380
690.212	80.902334
690.423	80.756258
690.634	80.616839
690.844	80.978625
691.055	81.314646
691.266	81.530113
691.476	81.740324
691.687	81.896680
691.897	81.812939
692.108	81.565457
692.318	81.374032
692.529	81.197245
692.739	81.121021
692.949	81.123672
693.160	81.073645
693.370	81.140811
693.581	81.296540
693.791	81.470597
694.001	81.880834
694.212	82.653801
694.422	83.497157
694.632	84.220529
694.843	84.853004
695.053	85.487315
695.263	85.838993
695.473	85.916801
695.683	85.896934
695.894	85.873620
696.104	85.826873
696.314	85.652497
696.524	84.943676
696.734	84.236100
696.944	83.808733
697.154	83.367517
697.365	82.884826
697.575	82.624826
697.785	82.364107
697.995	82.052342
698.205	81.860906
698.415	81.892858
698.625	81.883593
698.834	81.832187
699.044	81.747657
699.254	81.815188
699.464	81.886829
699.674	81.623361
699.884	81.424912
700.094	81.516012
700.304	81.822354
700.513	81.858380
700.723	81.550209
700.933	81.399805
701.143	81.522972
701.353	81.702727
701.562	81.748524
701.772	81.708080
701.982	81.698044
702.191	81.573488
702.401	81.265678
702.611	80.809059
702.820	80.823608
703.030	81.097113
703.239	81.305571
703.449	81.313892
703.659	80.880794
703.868	80.370240
704.078	80.439775
704.287	81.060031
704.497	81.691551
704.706	82.046894
704.916	82.115189
705.125	81.987582
705.334	81.943810
705.544	81.600910
705.753	81.030290
705.962	80.879473
706.172	80.895524
706.381	80.646331
706.590	80.300065
706.800	80.031428
707.009	79.989308
707.218	80.138865
707.428	80.131071
707.637	80.079546
707.846	80.191925
708.055	80.571412
708.264	81.101436
708.474	81.547155
708.683	81.734582
708.892	81.809368
709.101	81.893297
709.310	81.962137
709.519	82.051870
709.728	82.158765
709.937	82.168113
710.146	82.187880
710.355	82.156899
710.564	81.976006
710.773	82.008310
710.982	82.363762
711.191	82.721252
711.400	83.165996
711.609	83.627105
711.818	83.717513
712.027	83.630087
712.235	83.647208
712.444	83.901102
712.653	83.914778
712.862	83.608253
713.071	83.141154
713.279	82.659337
713.488	82.474300
713.697	82.242003
713.906	81.854283
714.114	81.908505
714.323	82.179214
714.532	82.274089
714.740	82.059973
714.949	81.914868
715.157	81.819482
715.366	81.698775
715.575	81.560098
715.783	81.428131
715.992	81.247135
716.200	80.945646
716.409	80.610817
716.617	80.519285
716.826	80.719736
717.034	80.901877
717.242	81.120406
717.451	81.529576
717.659	81.771502
717.868	81.913810
718.076	81.718464
718.284	81.361887
718.493	81.187509
718.701	81.048126
718.909	80.813609
719.118	80.239066
719.326	79.615896
719.534	79.368278
719.742	79.325730
719.951	79.285679
720.159	79.378249
720.367	79.671764
720.575	79.933926
720.783	80.146355
720.991	80.495390
721.199	80.758167
721.408	80.920865
721.616	81.335936
721.824	81.790800
722.032	82.032251
722.240	82.267274
722.448	82.282866
722.656	82.038509
722.864	81.975732
723.072	82.105969
723.280	81.827194
723.487	81.359020
723.695	80.990952
723.903	80.560844
724.111	80.038322
724.319	79.620291
724.527	79.167153
724.735	78.672834
724.942	78.466860
725.150	78.372385
725.358	78.280727
725.566	78.571505
725.773	79.062237
725.981	79.393392
726.189	79.424583
726.396	79.399842
726.604	79.465712
726.812	79.598544
727.019	79.870067
727.227	80.034540
727.435	80.133470
727.642	80.040866
727.850	79.693539
728.057	79.142016
728.265	78.875268
728.472	79.032685
728.680	79.185819
728.887	79.018772
729.095	78.764354
729.302	78.726690
729.509	78.622997
729.717	78.220764
729.924	77.981723
730.132	77.973264
730.339	78.047058
730.546	78.202535
730.753	78.349932
730.961	78.443783
731.168	78.636348
731.375	78.901159
731.583	78.643312
731.790	78.224588
731.997	78.397008
732.204	78.614800
732.411	78.430827
732.618	78.153347
732.826	78.009104
733.033	77.896731
733.240	77.792382
733.447	77.602989
733.654	77.305863
733.861	77.332807
734.068	77.396468
734.275	77.072526
734.482	76.732380
734.689	76.837488
734.896	77.283174
735.103	77.521266
735.310	77.756511
735.517	77.904261
735.724	78.120671
735.931	78.346475
736.137	78.396967
736.344	78.512934
736.551	78.739745
736.758	78.768411
736.965	78.407199
737.171	77.629786
737.378	76.866139
737.585	76.080368
737.792	75.595842
737.998	75.338506
738.205	75.329100
738.412	75.072046
738.618	74.685027
738.825	74.214684
739.032	73.905594
739.238	73.864904
739.445	73.848465
739.651	73.758447
739.858	73.911058
740.064	74.111558
740.271	74.048377
740.477	73.770962
740.684	73.755468
740.890	73.795682
741.097	73.840487
741.303	74.038883
741.510	74.202776
741.716	74.565815
741.922	75.093400
742.129	75.135632
742.335	74.692424
742.541	74.361554
742.748	74.093633
742.954	74.021005
743.160	74.166281
743.366	74.425386
743.573	74.483109
743.779	74.355713
743.985	74.102425
744.191	73.770595
744.397	73.748725
744.604	74.289145
744.810	74.702519
745.016	74.955861
745.222	75.216569
745.428	75.347359
745.634	75.255800
745.840	75.013160
746.046	74.551019
746.252	74.084886
746.458	73.774679
746.664	73.538606
746.870	73.119554
747.076	72.882665
747.282	72.946366
747.488	72.824787
747.694	72.488118
747.900	72.056166
748.105	71.893906
748.311	72.200450
748.517	72.627402
748.723	73.006339
748.929	73.277504
749.134	73.577277
749.340	73.784114
749.546	73.818992
749.752	73.899575
749.957	74.178750
750.163	74.528972
750.369	74.563995
750.574	74.411455
750.780	74.208676
750.985	74.076706
751.191	73.836277
751.397	73.583720
751.602	73.194062
751.808	72.681039
752.013	72.061839
752.219	71.489536
752.424	71.463201
752.630	71.828371
752.835	72.091736
753.041	72.318209
753.246	72.264776
753.451	72.213273
753.657	71.918853
753.862	71.795494
754.067	71.995547
754.273	72.409140
754.478	72.701035
754.683	72.397804
754.889	71.581823
755.094	70.617889
755.299	70.081942
755.504	69.632476
755.710	69.254353
755.915	69.188262
756.120	69.258200
756.325	69.036377
756.530	68.745652
756.735	68.397359
756.940	68.090715
757.146	68.129839
757.351	68.387998
757.556	68.366227
757.761	68.465239
757.966	68.537526
758.171	68.358267
758.376	67.887236
758.581	67.388945
758.786	66.739316
758.990	66.346063
759.195	66.279122
759.400	66.009011
759.605	65.601624
759.810	65.361687
760.015	65.268303
760.220	64.937355
760.424	64.635835
760.629	64.385896
760.834	64.313638
761.039	64.513705
761.244	64.724220
761.448	64.739101
761.653	64.962270
761.858	65.418468
762.062	65.661484
762.267	65.530544
762.472	65.452541
762.676	65.274174
762.881	65.030130
763.085	64.807037
763.290	64.580857
763.494	64.034717
763.699	63.438553
763.903	62.725794
764.108	61.981513
764.312	61.260208
764.517	60.757458
764.721	60.582114
764.926	60.570692
765.130	60.501099
765.335	60.257056
765.539	59.883756
765.743	59.669882
765.948	59.715462
766.152	59.796866
766.356	59.663345
766.560	59.663463
766.765	59.657238
766.969	59.538326
767.173	59.335711
767.377	59.291645
767.582	59.071641
767.786	59.007060
767.990	59.258128
768.194	59.298943
768.398	59.282145
768.602	59.460123
768.806	59.589672
769.010	59.663167
769.215	59.647944
769.419	59.596863
769.623	59.711579
769.827	59.966725
770.031	59.953575
770.234	59.671709
770.438	59.430164
770.642	59.044991
770.846	58.487961
771.050	57.951434
771.254	57.411631
771.458	56.982981
771.662	56.656808
771.866	56.260005
772.069	55.839642
772.273	55.343956
772.477	54.648525
772.681	53.891689
772.885	53.362965
773.088	52.897687
773.292	52.377168
773.496	51.970589
773.699	51.576934
773.903	51.250113
774.107	50.791401
774.310	50.402817
774.514	50.098796
774.717	50.040555
774.921	50.116814
775.124	50.172462
775.328	50.348702
775.531	50.501419
775.735	50.629312
775.938	50.702809
776.142	50.505701
776.345	50.249651
776.549	50.237945
776.752	50.405670
776.956	50.519156
777.159	50.344078
777.362	49.829269
777.566	49.446740
777.769	49.035681
777.972	48.488373
778.176	48.052252
778.379	47.763436
778.582	47.467555
778.785	47.125986
778.989	46.750655
779.192	46.198661
779.395	45.828050
779.598	45.604515
779.801	45.118364
780.004	44.501307
780.207	43.999723
780.411	43.472077
780.614	42.996868
780.817	42.652512
781.020	42.198233
781.223	41.817889
781.426	41.599223
781.629	41.290480
781.832	41.146098
782.035	41.015250
782.238	40.977531
782.440	40.829161
782.643	40.528058
782.846	40.231356
783.049	39.979150
783.252	39.688472
783.455	39.237896
783.658	38.748740
783.860	38.431475
784.063	38.154916
784.266	37.865825
784.469	37.633625
784.671	37.435430
784.874	37.260702
785.077	37.088107
785.279	36.767362
785.482	36.496570
785.685	36.229392
785.887	35.817407
786.090	35.301480
786.293	34.790426
786.495	34.409989
786.698	33.983406
786.900	33.508720
787.103	33.097967
787.305	32.657990
787.508	32.302098
787.710	32.038721
787.913	31.749778
788.115	31.576427
788.317	31.450542
788.520	31.192504
788.722	30.755134
788.924	30.361135
789.127	30.032971
789.329	29.724545
789.531	29.361511
789.734	28.974572
789.936	28.552974
790.138	28.112721
790.340	27.720569
790.543	27.215841
790.745	26.866034
790.947	26.513435
791.149	26.216662
791.351	25.967502
791.553	25.589328
791.756	25.308065
791.958	25.158664
792.160	25.005204
792.362	24.858662
792.564	24.655336
792.766	24.500545
792.968	24.301174
793.170	24.118249
793.372	23.803505
793.574	23.373810
793.776	22.971395
793.978	22.598700
794.180	22.233657
794.381	21.788920
794.583	21.292924
794.785	20.865562
794.987	20.465409
795.189	20.159758
795.391	19.881458
795.592	19.626625
795.794	19.287804
795.996	19.083504
796.198	18.892503
796.399	18.571188
796.601	18.207103
796.803	18.033468
797.004	17.845239
797.206	17.799114
797.407	17.611792
797.609	17.366583
797.811	17.134701
798.012	17.124574
798.214	16.927722
798.415	16.662397
798.617	16.567175
798.818	16.543840
799.020	16.360145
799.221	16.212473
799.423	15.847431
799.624	15.475376
799.826	15.242173
800.027	15.039740
800.228	14.766315
800.430	14.626036
800.631	14.457759
800.832	14.143204
801.034	13.951513
801.235	13.938433
801.436	13.808067
801.637	13.837632
801.839	13.895294
802.040	13.941889
802.241	14.036705
802.442	14.153407
802.643	14.288477
802.844	14.295073
803.046	14.367557
803.247	14.233821
803.448	14.030665
803.649	13.974026
803.850	13.961383
804.051	13.925924
804.252	13.892673
804.453	13.762817
804.654	13.615051
804.855	13.430240
805.056	13.398572
805.257	13.264979
805.458	13.197903
805.659	13.142067
805.859	13.101417
806.060	13.029710
806.261	12.972268
806.462	12.907521
806.663	12.957094
806.864	13.080537
807.064	12.999499
807.265	12.930980
807.466	13.056335
807.667	13.306129
807.867	13.400112
808.068	13.372781
808.269	13.357094
808.469	13.387843
808.670	13.421959
808.870	13.427274
809.071	13.346608
809.272	13.391639
809.472	13.528303
809.673	13.496918
809.873	13.357415
810.074	13.358600
810.274	13.505055
810.475	13.627408
810.675	13.698798
810.876	13.827013
811.076	14.053046
811.276	14.274441
811.477	14.572038
811.677	14.729009
811.878	14.897726
812.078	15.022447
812.278	15.071607
812.479	15.188402
812.679	15.344365
812.879	15.597230
813.079	15.728420
813.280	15.735568
813.480	15.817865
813.680	15.810071
813.880	15.844928
814.080	15.998925
814.280	16.349048
814.480	16.865069
814.681	17.239589
814.881	17.494377
815.081	17.700601
815.281	18.025611
815.481	18.325011
815.681	18.640593
815.881	19.106209
816.081	19.522917
816.281	19.844974
816.481	20.030494
816.681	20.201256
816.880	20.320087
817.080	20.371032
817.280	20.587683
817.480	20.776443
817.680	20.955817
817.880	21.099653
818.080	21.121694
818.279	21.334437
818.479	21.499700
818.679	21.727605
818.879	21.963533
819.078	22.221665
819.278	22.619193
819.478	22.822736
819.677	23.131087
819.877	23.533661
820.077	23.971634
820.276	24.426918
820.476	24.700107
820.675	24.951699
820.875	25.113422
821.074	25.287496
821.274	25.396692
821.473	25.537323
821.673	25.616240
821.872	25.621051
822.072	25.653630
822.271	25.716131
822.471	25.965439
822.670	26.240364
822.869	26.504279
823.069	26.866031
823.268	27.236373
823.467	27.643016
823.667	27.955885
823.866	28.377662
824.065	28.786891
824.265	29.144214
824.464	29.348605
824.663	29.508779
824.862	29.725318
825.061	30.172491
825.261	30.361733
825.460	30.361241
825.659	30.534522
825.858	30.648257
826.057	30.809013
826.256	30.920438
826.455	31.028124
826.654	31.112361
826.853	31.233143
827.052	31.445060
827.251	31.641293
827.450	31.929334
827.649	32.317280
827.848	32.592396
828.047	33.020318
828.246	33.265317
828.445	33.357942
828.644	33.497940
828.843	33.749740
829.041	34.064226
829.240	34.296574
829.439	34.496283
829.638	34.786718
829.836	34.984703
830.035	35.308670
830.234	35.623894
830.433	36.060634
830.631	36.719798
830.830	37.521692
831.029	38.186084
831.227	38.650347
831.426	39.355699
831.624	39.828721
831.823	40.052833
832.022	40.122890
832.220	39.967355
832.419	39.890022
832.617	39.944047
832.816	40.009042
833.014	40.000683
833.213	40.248675
833.411	40.568751
833.609	40.768571
833.808	41.056381
834.006	41.380850
834.205	41.853955
834.403	42.505638
834.601	43.138874
834.800	43.453141
834.998	43.575337
835.196	43.547331
835.394	43.575709
835.593	43.551315
835.791	43.189976
835.989	42.833741
836.187	42.708169
836.385	42.818862
836.584	42.726262
836.782	42.936773
836.980	43.320938
837.178	43.788768
837.376	44.373982
837.574	44.748062
837.772	45.188928
837.970	45.787131
838.168	46.260485
838.366	46.702912
838.564	46.909965
838.762	47.252793
838.960	47.279653
839.158	47.102958
839.356	46.992923
839.554	46.787927
839.752	46.691008
839.949	46.613111
840.147	46.710011
840.345	47.050818
840.543	47.572650
840.741	47.929893
840.938	48.148496
841.136	48.209709
841.334	48.341860
841.532	48.303327
841.729	48.416039
841.927	48.606240
842.125	48.754812
842.322	48.787745
842.520	48.605162
842.718	48.443313
842.915	48.514196
843.113	48.761710
843.310	49.323408
843.508	50.086308
843.705	51.049029
843.903	51.850441
844.100	52.195871
844.298	52.134941
844.495	51.969969
844.693	52.126757
844.890	51.938047
845.087	51.882976
845.285	51.984778
845.482	51.847187
845.679	51.501280
845.877	51.202501
846.074	51.178844
846.271	51.593482
846.469	52.308400
846.666	52.929309
846.863	53.517757
847.060	54.343519
847.257	54.854455
847.455	54.874810
847.652	54.752344
847.849	54.815724
848.046	54.911996
848.243	54.900556
848.440	54.709668
848.637	54.575165
848.834	54.540638
849.031	54.213576
849.228	53.841138
849.425	53.475230
849.622	53.281626
849.819	53.468350
850.016	53.867792
850.213	54.156434
850.410	53.993657
850.607	53.858162
850.804	53.993130
851.001	54.389745
851.198	54.781737
851.394	55.164907
851.591	55.785941
851.788	56.594431
851.985	56.997197
852.181	57.093973
852.378	56.914203
852.575	56.908663
852.772	56.898597
852.968	56.823100
853.165	56.500773
853.362	56.476858
853.558	56.408213
853.755	56.283998
853.951	56.523289
854.148	56.916738
854.345	57.140477
854.541	57.409268
854.738	57.933808
854.934	58.518762
855.131	59.053828
855.327	59.705488
855.523	60.082232
855.720	60.414035
855.916	60.443957
856.113	59.845586
856.309	59.392663
856.505	59.249775
856.702	59.413599
856.898	59.338892
857.094	59.255685
857.291	59.266863
857.487	59.354856
857.683	59.492498
857.879	59.734221
858.076	60.144722
858.272	60.992361
858.468	61.919010
858.664	62.792555
858.860	63.465829
859.056	63.924022
859.253	64.350056
859.449	64.755926
859.645	65.092654
859.841	65.665829
860.037	66.018043
860.233	66.351733
860.429	66.349084
860.625	66.204719
860.821	66.271906
861.017	66.335303
861.213	66.811226
861.409	67.023720
861.604	66.625172
861.800	66.388420
861.996	66.100432
862.192	66.175785
862.388	66.043672
862.584	65.903736
862.779	65.713468
862.975	65.348813
863.171	64.773788
863.367	64.058743
863.562	63.721530
863.758	63.946394
863.954	63.771432
864.149	63.575186
864.345	63.301521
864.541	63.306383
864.736	63.388005
864.932	63.466022
865.127	63.430855
865.323	63.811529
865.518	64.490927
865.714	65.057399
865.910	65.245260
866.105	65.380445
866.300	65.298026
866.496	65.352361
866.691	65.633907
866.887	66.034890
867.082	66.433166
867.277	66.823269
867.473	66.876376
867.668	66.702001
867.864	66.375419
868.059	66.124905
868.254	66.334259
868.449	67.163487
868.645	67.714632
868.840	67.937502
869.035	68.192911
869.230	68.735360
869.425	69.269439
869.621	69.884777
869.816	70.015474
870.011	69.853913
870.206	69.796226
870.401	69.756183
870.596	69.596899
870.791	69.490113
870.986	69.254740
871.181	68.886986
871.376	68.080517
871.571	67.391992
871.766	66.729900
871.961	66.560545
872.156	66.653204
872.351	66.810983
872.546	66.783097
872.741	66.440641
872.936	66.010047
873.130	66.041865
873.325	66.272202
873.520	66.946121
873.715	67.420946
873.910	67.672023
874.104	67.467893
874.299	67.138942
874.494	66.963021
874.688	67.321367
874.883	67.746906
875.078	68.319223
875.272	68.686203
875.467	68.329080
875.662	67.580144
875.856	66.896062
876.051	66.595631
876.245	66.813349
876.440	67.450594
876.634	67.844910
876.829	67.631289
877.023	67.324269
877.218	67.152877
877.412	66.788983
877.607	66.372209
877.801	65.683575
877.995	65.113650
878.190	64.695089
878.384	64.546067
878.578	64.253984
878.773	64.261728
878.967	64.623947
879.161	65.091370
879.356	65.543730
879.550	66.046420
879.744	66.820455
879.938	67.800174
880.133	68.953336
880.327	69.927629
880.521	70.860498
880.715	71.836279
880.909	72.397543
881.103	72.611495
881.297	72.953127
881.491	72.787683
881.685	72.456828
881.880	72.415489
882.073	72.661016
882.267	72.519952
882.461	72.548278
882.655	72.530776
882.849	72.523425
883.043	72.571721
883.237	72.396007
883.431	71.974819
883.625	71.851283
883.819	72.305656
884.013	72.613021
884.206	72.563760
884.400	72.521902
884.594	72.756904
884.788	72.877709
884.982	72.968856
885.175	72.877941
885.369	72.968669
885.563	72.885112
885.756	72.782763
885.950	72.338672
886.144	71.895062
886.337	72.195021
886.531	72.595200
886.724	72.410767
886.918	72.291824
887.112	72.221953
887.305	72.303865
887.499	72.552314
887.692	72.916047
887.885	73.105207
888.079	73.316604
888.272	73.723034
888.466	73.664916
888.659	73.447823
888.853	73.104713
889.046	72.634039
889.239	72.021842
889.433	71.798331
889.626	71.103903
889.819	70.377254
890.013	69.969194
890.206	69.675687
890.399	69.445871
890.592	69.292866
890.785	69.325634
890.979	69.556653
891.172	69.909387
891.365	70.500062
891.558	70.665149
891.751	70.937751
891.944	71.485235
892.137	71.925988
892.330	72.505373
892.524	72.720208
892.717	73.037826
892.910	73.110467
893.103	73.235462
893.296	73.417923
893.488	73.141064
893.681	72.894495
893.874	73.247090
894.067	73.370838
894.260	73.661766
894.453	74.015785
894.646	74.473082
894.839	74.986161
895.031	76.094209
895.224	77.121785
895.417	77.894289
895.610	78.936054
895.802	79.768176
895.995	79.981698
896.188	79.674817
896.381	78.968547
896.573	78.286958
896.766	78.352920
896.958	78.098621
897.151	77.477178
897.344	76.797737
897.536	76.131479
897.729	75.464336
897.921	75.064769
898.114	74.459261
898.306	74.370849
898.499	74.394934
898.691	74.383200
898.884	73.985789
899.076	73.698092
899.269	73.590669
899.461	73.535544
899.653	73.710932
899.846	73.900933
900.038	73.608846
900.230	73.898550
900.423	74.206944
900.615	74.827218
900.807	75.468872
901.000	75.913337
901.192	76.350660
901.384	76.496281
901.576	76.434796
901.768	75.929392
901.961	75.769226
902.153	76.012771
902.345	76.273242
902.537	76.377516
902.729	76.177257
902.921	75.813264
903.113	75.823791
903.305	76.195950
903.497	76.658571
903.689	77.544628
903.881	78.709198
904.073	79.342095
904.265	80.007665
904.457	80.622387
904.649	81.116081
904.841	81.681046
905.033	82.441073
905.224	82.778408
905.416	82.591491
905.608	82.000493
905.800	81.148152
905.992	80.524061
906.183	80.219315
906.375	80.437681
906.567	80.501034
906.759	80.918881
906.950	81.428546
907.142	81.315789
907.334	81.059402
907.525	81.122356
907.717	81.553814
907.909	81.805921
908.100	81.853162
908.292	81.900416
908.483	81.327571
908.675	80.677826
908.866	80.172798
909.058	79.551652
909.249	79.091886
909.441	79.021586
909.632	78.969010
909.824	78.556438
910.015	78.308974
910.206	78.352829
910.398	78.322275
910.589	78.308939
910.780	78.702042
910.972	79.269538
911.163	79.815234
911.354	80.038237
911.546	80.045471
911.737	79.952484
911.928	80.071822
912.119	80.223159
912.310	80.376321
912.502	80.486264
912.693	80.904535
912.884	81.030183
913.075	80.478986
913.266	80.222296
913.457	80.794812
913.648	80.962556
913.839	80.879496
914.030	80.993740
914.221	81.397083
914.412	81.777732
914.603	82.125663
914.794	82.187965
914.985	82.502227
915.176	83.171662
915.367	83.410588
915.558	83.337105
915.749	83.599268
915.940	84.203493
916.130	84.580365
916.321	84.954178
916.512	84.541694
916.703	83.616015
916.893	83.147233
917.084	82.472787
917.275	81.799288
917.466	81.433310
917.656	81.152517
917.847	81.015442
918.038	80.369785
918.228	79.711017
918.419	79.090098
918.609	78.755575
918.800	78.991235
918.990	79.065979
919.181	79.204452
919.372	79.257850
919.562	78.894324
919.753	78.400246
919.943	78.227878
920.133	78.488567
920.324	79.255227
920.514	79.600969
920.705	80.068967
920.895	80.362223
921.085	80.150142
921.276	79.953353
921.466	79.957060
921.656	80.096479
921.847	79.936354
922.037	79.347285
922.227	79.050578
922.417	78.723069
922.608	78.476436
922.798	77.966043
922.988	77.789118
923.178	77.751087
923.368	77.669063
923.558	77.413320
923.748	77.232146
923.939	77.564634
924.129	77.665276
924.319	77.262132
924.509	76.897767
924.699	76.965228
924.889	77.659797
925.079	77.925395
925.269	78.396251
925.459	78.729637
925.648	79.170694
925.838	79.852857
926.028	80.060450
926.218	80.568057
926.408	81.189863
926.598	81.661645
926.788	81.590697
926.977	80.905401
927.167	80.997213
927.357	81.440403
927.547	81.968645
927.736	82.499465
927.926	82.710074
928.116	82.759009
928.305	82.786777
928.495	83.064233
928.685	82.814901
928.874	83.153133
929.064	83.805028
929.253	84.030604
929.443	84.235699
929.633	84.589133
929.822	84.222396
930.012	84.006064
930.201	84.324999
930.391	84.519752
930.580	84.467961
930.769	84.767914
930.959	84.811274
931.148	84.414660
931.338	83.840616
931.527	82.766149
931.716	81.736272
931.906	81.510623
932.095	80.879684
932.284	80.368027
932.474	80.355026
932.663	80.663465
932.852	80.995626
933.041	80.773520
933.230	81.222524
933.420	81.519005
933.609	82.224144
933.798	82.324372
933.987	82.026392
934.176	82.275084
934.365	82.199049
934.554	81.759861
934.743	81.369580
934.932	81.155577
935.121	81.209817
935.310	81.098911
935.499	81.321379
935.688	81.508009
935.877	82.225282
936.066	82.807772
936.255	83.214000
936.444	83.594007
936.633	83.848475
936.822	84.120637
937.010	84.454132
937.199	84.750319
937.388	85.018180
937.577	84.950065
937.766	84.305625
937.954	83.383159
938.143	83.475778
938.332	83.303270
938.520	82.880269
938.709	82.638376
938.898	81.937084
939.086	81.001385
939.275	80.134416
939.464	79.290809
939.652	79.142489
939.841	79.093949
940.029	79.028619
940.218	78.283537
940.406	77.855509
940.595	77.823589
940.783	77.943955
940.972	77.897670
941.160	78.102594
941.349	78.359586
941.537	78.195709
941.725	77.824548
941.914	77.488247
942.102	77.489227
942.290	77.872183
942.479	78.233435
942.667	78.670596
942.855	78.748520
943.043	78.709677
943.232	78.579982
943.420	79.063990
943.608	79.987088
943.796	80.647212
943.984	81.251140
944.172	81.382290
944.361	80.914557
944.549	80.242251
944.737	79.751359
944.925	79.863943
945.113	80.218766
945.301	80.391475
945.489	80.097446
945.677	79.923834
945.865	79.674664
946.053	79.555150
946.241	79.745154
946.429	80.638235
946.617	81.714377
946.805	82.387547
946.992	83.034529
947.180	83.738121
947.368	84.501615
947.556	85.191255
947.744	85.578873
947.931	85.695021
948.119	85.600422
948.307	85.429434
948.495	85.082791
948.682	85.250136
948.870	85.445308
949.058	85.421010
949.245	85.057596
949.433	84.537355
949.621	83.846895
949.808	83.419435
949.996	83.364369
950.183	84.350024
950.371	85.416930
950.558	85.976070
950.746	86.436106
950.933	86.444665
951.121	86.203679
951.308	86.681594
951.496	86.755204
951.683	86.992325
951.870	87.190236
952.058	87.304579
952.245	87.249748
952.433	87.056833
952.620	86.766247
952.807	86.003112
952.994	85.581136
953.182	85.293816
953.369	84.781898
953.556	84.420371
953.743	83.777013
953.931	83.424189
954.118	83.144871
954.305	81.992644
954.492	80.847840
954.679	80.302952
954.866	80.126372
955.053	80.049701
955.240	79.521634
955.427	79.461533
955.615	79.646039
955.802	79.854698
955.989	79.997250
956.175	80.181673
956.362	80.472120
956.549	81.242514
956.736	81.456249
956.923	81.066298
957.110	80.310506
957.297	79.939299
957.484	78.938890
957.671	77.909204
957.857	76.996722
958.044	76.008713
958.231	75.474096
958.418	75.361180
958.604	75.359864
958.791	75.729683
958.978	76.113549
959.165	76.698007
959.351	77.086242
959.538	77.520200
959.724	78.463272
959.911	79.816667
960.098	80.572910
960.284	81.062444
960.471	81.700124
960.657	81.385627
960.844	81.546058
961.030	82.300497
961.217	83.398120
961.403	84.449719
961.590	85.758231
961.776	86.501422
961.963	87.125482
962.149	88.310350
962.335	89.292331
962.522	89.559962
962.708	90.616705
962.894	90.907880
963.081	90.936950
963.267	90.669650
963.453	90.565365
963.639	90.074986
963.826	90.011385
964.012	89.082419
964.198	87.435659
964.384	86.732235
964.570	85.940528
964.756	84.540328
964.943	83.753844
965.129	82.581813
965.315	81.999966
965.501	81.741685
965.687	81.358444
965.873	80.520873
966.059	80.516726
966.245	81.241072
966.431	80.536140
966.617	80.689765
966.803	81.060453
966.989	81.121124
967.174	81.449286
967.360	80.961047
967.546	80.244762
967.732	80.295087
967.918	80.388485
968.104	80.350234
968.289	80.691550
968.475	81.752300
968.661	82.249880
968.847	82.631681
969.032	83.176318
969.218	83.581631
969.404	84.431745
969.589	85.271197
969.775	85.701027
969.961	86.336892
970.146	87.413695
970.332	87.351180
970.517	87.359154
970.703	87.929319
970.888	88.349348
971.074	88.268211
971.260	88.651880
971.445	88.722928
971.630	88.941357
971.816	89.303974
972.001	89.287833
972.187	88.652163
972.372	88.490347
972.557	87.663908
972.743	86.923619
972.928	86.991405
973.113	86.754511
973.299	86.720453
973.484	87.314448
973.669	87.896757
973.854	87.522961
974.040	88.055826
974.225	88.203910
974.410	88.856615
974.595	89.734390
974.780	90.069577
974.965	89.755024
975.151	90.025026
975.336	89.878943
975.521	89.359522
975.706	88.726784
975.891	88.192239
976.076	87.614988
976.261	87.144309
976.446	86.482106
976.631	86.232437
976.816	85.812988
977.001	85.496305
977.186	85.524633
977.370	85.508183
977.555	86.195504
977.740	86.593543
977.925	87.220154
978.110	86.734259
978.295	86.893232
978.479	86.559949
978.664	86.291111
978.849	86.096097
979.034	85.618768
979.218	85.237553
979.403	85.132581
979.588	83.989700
979.772	82.441462
979.957	81.959832
980.141	81.846878
980.326	81.774738
980.511	82.075166
980.695	81.494888
980.880	81.245560
981.064	81.645681
981.249	81.162421
981.433	80.303374
981.618	80.352947
981.802	80.599179
981.987	79.788567
982.171	79.688139
982.355	79.679366
982.540	79.495089
982.724	79.914849
982.908	80.492446
983.093	80.857746
983.277	82.405934
983.461	84.151650
983.646	85.048878
983.830	86.977269
984.014	88.741478
984.198	89.831806
984.382	90.644142
984.567	91.772835
984.751	92.484043
984.935	92.753238
985.119	92.201860
985.303	90.660555
985.487	89.656969
985.671	88.625977
985.855	87.086837
986.039	87.054090
986.223	87.299882
986.407	86.839048
986.591	85.943644
986.775	86.101924
986.959	85.619536
987.143	85.422236
987.327	86.487032
987.511	86.494473
987.695	87.090780
987.879	87.173128
988.062	86.196549
988.246	84.980809
988.430	84.904652
988.614	84.707282
988.797	84.117401
988.981	84.387209
989.165	85.591342
989.349	84.881924
989.532	84.528550
989.716	83.762628
989.900	83.778516
990.083	83.681519
990.267	83.224889
990.450	83.284818
990.634	83.258779
990.817	83.732209
991.001	84.418955
991.184	83.690701
991.368	84.304058
991.551	85.578011
991.735	86.646567
991.918	87.505226
992.102	89.036212
992.285	91.042018
992.469	92.261423
992.652	93.632247
992.835	94.057307
993.019	93.875356
993.202	95.541107
993.385	96.453594
993.568	95.741423
993.752	95.243290
993.935	94.847973
994.118	93.961037
994.301	93.113152
994.484	92.264342
994.668	91.978642
994.851	92.005830
995.034	91.825307
995.217	90.677919
995.400	89.475938
995.583	89.185074
995.766	89.460451
995.949	89.688132
996.132	90.121520
996.315	90.116987
996.498	90.132166
996.681	89.968500
996.864	89.128979
997.047	89.358926
997.230	89.064701
997.413	88.299292
997.596	88.048856
997.778	87.421184
997.961	87.435444
998.144	87.587247
998.327	87.717752
998.510	87.349790
998.692	87.109671
998.875	87.410781
999.058	87.001780
999.241	87.574045
999.423	88.208751
999.606	88.574527
999.789	89.602582
999.971	89.293584
1000.154	88.603477
1000.336	88.809600
1000.519	89.348165
1000.701	89.008548
1000.884	89.826655
1001.067	90.641367
1001.249	90.187022
1001.431	90.224099
1001.614	89.859835
1001.796	88.794863
1001.979	88.558971
1002.161	89.632347
1002.344	89.968687
1002.526	90.149450
1002.708	90.621448
1002.891	90.006427
1003.073	90.082274
1003.255	89.921424
1003.438	90.706306
1003.620	91.904452
1003.802	92.953077
1003.984	93.727001
1004.166	93.102529
1004.349	92.771765
1004.531	92.128068
1004.713	91.667685
1004.895	92.197388
1005.077	90.683063
1005.259	90.525479
1005.441	89.691704
1005.623	89.320805
1005.805	89.426334
1005.987	89.121523
1006.169	89.543298
1006.351	89.791108
1006.533	90.263984
1006.715	90.700850
1006.897	90.369960
1007.079	91.717178
1007.261	92.297885
1007.443	92.961834
1007.625	93.486150
1007.806	93.542687
1007.988	93.707829
1008.170	93.618426
1008.352	93.200811
1008.534	93.626915
1008.715	94.928844
1008.897	94.636981
1009.079	94.053567
1009.260	93.893440
1009.442	93.678997
1009.624	92.858151
1009.805	92.211762
1009.987	91.853001
1010.169	92.144837
1010.350	92.890212
1010.532	92.477253
1010.713	91.357677
1010.895	91.513300
1011.076	91.511075
1011.258	92.293750
1011.439	92.936579
1011.621	94.134699
1011.802	94.137962
1011.983	94.418287
1012.165	94.083492
1012.346	93.196682
1012.527	91.822681
1012.709	90.621482
1012.890	90.756491
1013.071	91.284274
1013.253	90.611298
1013.434	90.303871
1013.615	89.600654
1013.796	89.957138
1013.978	90.619130
1014.159	90.887796
1014.340	91.555117
1014.521	93.107708
1014.702	94.352973
1014.883	93.863292
1015.064	92.828920
1015.245	92.830931
1015.427	92.812424
1015.608	92.207581
1015.789	91.826532
1015.970	90.332536
1016.151	89.333327
1016.332	89.041985
1016.512	88.444738
1016.693	88.341555
1016.874	88.320259
1017.055	89.239022
1017.236	89.713982
1017.417	89.932793
1017.598	89.443130
1017.779	88.877994
1017.959	89.340942
1018.140	90.009401
1018.321	89.865091
1018.502	89.578742
1018.682	89.163649
1018.863	89.510421
1019.044	88.810864
1019.224	88.484152
1019.405	88.486568
1019.586	88.357966
1019.766	88.135091
1019.947	88.417646
1020.127	88.269744
1020.308	88.072704
1020.488	88.294290
1020.669	88.740679
1020.849	88.868322
1021.030	90.082002
1021.210	91.091426
1021.391	91.407434
1021.571	93.257138
1021.752	94.904741
1021.932	94.496525
1022.112	93.904564
1022.293	94.541882
1022.473	94.625382
1022.653	94.415033
1022.834	94.103221
1023.014	93.413145
1023.194	92.454375
1023.374	92.805474
1023.555	92.629832
1023.735	91.848264
1023.915	91.827056
1024.095	91.048719
1024.275	90.536378
1024.455	91.149134
1024.635	91.912474
1024.816	92.495717
1024.996	92.229122
1025.176	92.349904
1025.356	91.258627
1025.536	90.112498
1025.716	89.561738
1025.896	89.611822
1026.076	90.762363
1026.256	90.816364
1026.436	90.628542
1026.615	90.227488
1026.795	88.996273
1026.975	88.929686
1027.155	88.541153
1027.335	88.172075
1027.515	88.053384
1027.695	88.722810
1027.874	90.124008
1028.054	89.404391
1028.234	89.545806
1028.413	90.126218
1028.593	91.446452
1028.773	92.918013
1028.953	93.212972
1029.132	93.006851
1029.312	93.658703
1029.491	94.231355
1029.671	94.095994
1029.851	92.994330
1030.030	93.622806
1030.210	94.825154
1030.389	95.061892
1030.569	93.343377
1030.748	91.981114
1030.928	90.927700
1031.107	90.619821
1031.286	90.393972
1031.466	90.613649
1031.645	90.776683
1031.825	91.144072
1032.004	91.993085
1032.183	91.932556
1032.363	92.277794
1032.542	93.347101
1032.721	94.019791
1032.900	94.232321
1033.080	94.922864
1033.259	95.742337
1033.438	95.925927
1033.617	96.043939
1033.796	95.412433
1033.975	94.991713
1034.155	94.035404
1034.334	92.776808
1034.513	92.438357
1034.692	92.601660
1034.871	92.522430
1035.050	91.517241
1035.229	90.662301
1035.408	89.625261
1035.587	89.128959
1035.766	89.197471
1035.945	89.663807
1036.124	89.877417
1036.303	89.669211
1036.481	88.491964
1036.660	88.163384
1036.839	89.281561
1037.018	90.402242
1037.197	90.232837
1037.376	90.723228
1037.554	90.994616
1037.733	90.403640
1037.912	89.958534
1038.091	90.263176
1038.269	90.356526
1038.448	90.104124
1038.627	90.468571
1038.805	89.832840
1038.984	89.500049
1039.162	89.113496
1039.341	89.091028
1039.520	88.868059
1039.698	89.048832
1039.877	89.360950
1040.055	89.140377
1040.234	89.237280
1040.412	89.436775
1040.591	89.159831
1040.769	89.769011
1040.947	89.956111
1041.126	90.052870
1041.304	89.870022
1041.483	89.233352
1041.661	90.226857
1041.839	90.181097
1042.017	89.062311
1042.196	88.917286
1042.374	89.600233
1042.552	89.949712
1042.730	89.629051
1042.909	88.971535
1043.087	89.130596
1043.265	89.876462
1043.443	91.671773
1043.621	92.114397
1043.799	91.557935
1043.978	92.078865
1044.156	91.873805
1044.334	91.910350
1044.512	91.782314
1044.690	91.228408
1044.868	91.866719
1045.046	93.163001
1045.224	93.041414
1045.402	92.148156
1045.580	91.479006
1045.758	91.867046
1045.935	91.686894
1046.113	91.249873
1046.291	90.507232
1046.469	88.982555
1046.647	88.785763
1046.825	88.089937
1047.002	86.859082
1047.180	86.545603
1047.358	86.415074
1047.536	85.827167
1047.713	85.670004
1047.891	85.956586
1048.069	87.037026
1048.246	87.915911
1048.424	88.768405
1048.602	89.315494
1048.779	90.247425
1048.957	90.152735
1049.134	90.597130
1049.312	91.013330
1049.489	91.224587
1049.667	91.043750
1049.844	91.355213
1050.022	90.920020
1050.199	90.956303
1050.377	90.655114
1050.554	90.157467
1050.731	90.260954
1050.909	90.583825
1051.086	90.033071
1051.263	89.740125
1051.441	90.959435
1051.618	90.929434
1051.795	90.460009
1051.973	89.682389
1052.150	89.456557
1052.327	90.341944
1052.504	90.900089
1052.681	90.293623
1052.859	90.551063
1053.036	90.904611
1053.213	91.164502
1053.390	90.635840
1053.567	90.591694
1053.744	89.770667
1053.921	90.011544
1054.098	89.698807
1054.275	89.523468
1054.452	89.441149
1054.629	89.445411
1054.806	90.077339
1054.983	90.340058
1055.160	90.928930
1055.337	91.301360
1055.514	90.880589
1055.691	90.848971
1055.868	91.493836
1056.044	91.642946
1056.221	91.461398
1056.398	91.392019
1056.575	91.160714
1056.751	89.689532
1056.928	88.545191
1057.105	88.155342
1057.282	88.105244
1057.458	89.436324
1057.635	91.187954
1057.812	90.597920
1057.988	90.151792
1058.165	90.752947
1058.341	90.640257
1058.518	90.996113
1058.694	91.663234
1058.871	92.446713
1059.047	92.315808
1059.224	91.680497
1059.401	91.118867
1059.577	90.714432
1059.753	91.481231
1059.930	92.348336
1060.106	91.891759
1060.282	92.440175
1060.459	92.824312
1060.635	93.023989
1060.812	92.617328
1060.988	92.748474
1061.164	93.594839
1061.340	93.568656
1061.517	92.927215
1061.693	92.884758
1061.869	92.074446
1062.045	91.144310
1062.221	90.956726
1062.398	90.669635
1062.574	89.960772
1062.750	89.651418
1062.926	89.237123
1063.102	88.368087
1063.278	88.138180
1063.454	87.617733
1063.630	86.716628
1063.806	86.722088
1063.982	86.983518
1064.158	85.749514
1064.334	85.475060
1064.510	86.226705
1064.686	86.153591
1064.862	85.667318
1065.038	85.707038
1065.214	85.523530
1065.389	86.897388
1065.565	87.626384
1065.741	88.378162
1065.917	89.432147
1066.093	90.329944
1066.268	89.759565
1066.444	89.143910
1066.620	89.780271
1066.795	91.032061
1066.971	91.519571
1067.147	91.755306
1067.322	90.662207
1067.498	90.340969
1067.673	89.514772
1067.849	88.721636
1068.025	88.634250
1068.200	88.969263
1068.376	89.143159
1068.551	88.734286
1068.727	88.294709
1068.902	87.816585
1069.078	86.762621
1069.253	86.834438
1069.428	86.579307
1069.604	86.672057
1069.779	86.625667
1069.954	86.739237
1070.130	87.119755
1070.305	87.691898
1070.480	88.469070
1070.656	88.326138
1070.831	88.120433
1071.006	88.799136
1071.181	88.723652
1071.357	89.031543
1071.532	88.681277
1071.707	87.859045
1071.882	87.357576
1072.057	87.011142
1072.232	86.298708
1072.407	85.213606
1072.582	84.650063
1072.757	85.192082
1072.932	84.783494
1073.107	84.278930
1073.282	83.640425
1073.457	84.002416
1073.632	84.927884
1073.807	84.195835
1073.982	83.630843
1074.157	83.271032
1074.332	82.895141
1074.507	82.415486
1074.682	80.951677
1074.856	81.006534
1075.031	81.187145
1075.206	81.746042
1075.381	81.839351
1075.556	81.146344
1075.730	81.335368
1075.905	81.649043
1076.080	82.153634
1076.254	82.230514
1076.429	82.889169
1076.604	83.900108
1076.778	84.190533
1076.953	84.314163
1077.127	83.631943
1077.302	82.972885
1077.477	83.352583
1077.651	83.748948
1077.826	83.937032
1078.000	83.484936
1078.175	83.263596
1078.349	83.217955
1078.523	83.155980
1078.698	82.889065
1078.872	82.742875
1079.047	83.483586
1079.221	84.328757
1079.395	84.983136
1079.570	85.997914
1079.744	85.502005
1079.918	85.122646
1080.092	85.372016
1080.267	84.491312
1080.441	83.227187
1080.615	83.691470
1080.789	83.634058
1080.963	82.555356
1081.137	81.346264
1081.312	80.100287
1081.486	78.979430
1081.660	79.321818
1081.834	79.605946
1082.008	79.647625
1082.182	80.403856
1082.356	81.406381
1082.530	81.500144
1082.704	81.776363
1082.878	82.283668
1083.052	83.165809
1083.226	83.604727
1083.400	83.288093
1083.573	82.666027
1083.747	82.986497
1083.921	83.769736
1084.095	84.000346
1084.269	84.423194
1084.443	84.248760
1084.616	84.461517
1084.790	84.846662
1084.964	84.599753
1085.138	84.613296
1085.311	85.006627
1085.485	85.311378
1085.659	84.618468
1085.832	84.177327
1086.006	83.359412
1086.179	83.052244
1086.353	82.878822
1086.527	83.123985
1086.700	82.989326
1086.874	83.332198
1087.047	83.160963
1087.221	82.553398
1087.394	82.559431
1087.568	82.926317
1087.741	82.656893
1087.914	83.102605
1088.088	82.771232
1088.261	82.144745
1088.435	80.877842
1088.608	79.747244
1088.781	78.666516
1088.954	78.394509
1089.128	78.963759
1089.301	79.073162
1089.474	78.780253
1089.647	78.446371
1089.821	77.624310
1089.994	77.061364
1090.167	77.161995
1090.340	77.270555
1090.513	77.574534
1090.686	78.121209
1090.859	79.155825
1091.032	78.591682
1091.206	77.477095
1091.379	76.992124
1091.552	77.474883
1091.725	77.549381
1091.898	77.497950
1092.071	78.421736
1092.244	78.957177
1092.416	79.172765
1092.589	78.783549
1092.762	77.261872
1092.935	76.503976
1093.108	76.671770
1093.281	76.733100
1093.453	76.677048
1093.626	76.726801
1093.799	76.944317
1093.972	76.251459
1094.145	75.871210
1094.317	76.102510
1094.490	76.424917
1094.663	77.256271
1094.835	78.555897
1095.008	79.823392
1095.181	81.414985
1095.353	81.518941
1095.526	82.530798
1095.698	82.806006
1095.871	82.438694
1096.043	82.758249
1096.216	82.705555
1096.388	82.777260
1096.561	82.857593
1096.733	83.225509
1096.906	82.483136
1097.078	80.449288
1097.250	80.334986
1097.423	79.694713
1097.595	79.163114
1097.768	78.502926
1097.940	77.798422
1098.112	77.185039
1098.284	76.841407
1098.457	76.099136
1098.629	75.102277
1098.801	75.258529
1098.973	75.564127
1099.146	74.932041
1099.318	74.430678
1099.490	74.743011
1099.662	75.471183
1099.834	75.410145
1100.006	75.707645
1100.178	75.954400
1100.350	76.104152
1100.522	76.362519
1100.694	75.635231
1100.866	75.350549
1101.038	75.487697
1101.210	76.270973
1101.382	76.561472
1101.554	76.688082
1101.726	77.272273
1101.898	77.678222
1102.070	77.587264
1102.241	77.750150
1102.413	78.070890
1102.585	78.249493
1102.757	78.563350
1102.929	78.489325
1103.100	77.869230
1103.272	76.643873
1103.444	75.685125
1103.616	74.937356
1103.787	73.900003
1103.959	73.381753
1104.130	72.680508
1104.302	71.436607
1104.474	71.134925
1104.645	71.251420
1104.817	71.813122
1104.988	71.581207
1105.160	71.705103
1105.331	72.051732
1105.503	72.082867
1105.674	71.969732
1105.846	72.081504
1106.017	73.320772
1106.189	74.006271
1106.360	73.761204
1106.531	73.459754
1106.703	72.266810
1106.874	71.872936
1107.045	71.710181
1107.217	71.566382
1107.388	71.197595
1107.559	70.381522
1107.730	69.637018
1107.902	68.718308
1108.073	68.338500
1108.244	68.229979
1108.415	67.303591
1108.586	66.834443
1108.757	66.853044
1108.929	66.606430
1109.100	66.305605
1109.271	66.301086
1109.442	66.870551
1109.613	67.600829
1109.784	67.356986
1109.955	67.194438
1110.126	67.201409
1110.297	67.570078
1110.468	68.281124
1110.639	68.382098
1110.809	68.820635
1110.980	68.838955
1111.151	68.337638
1111.322	68.071897
1111.493	67.026638
1111.664	66.718349
1111.834	66.907767
1112.005	67.057215
1112.176	67.322637
1112.347	67.188178
1112.517	67.311746
1112.688	66.856564
1112.859	66.823161
1113.029	67.917818
1113.200	69.385771
1113.371	70.439164
1113.541	70.894577
1113.712	70.965645
1113.882	70.729854
1114.053	70.794347
1114.223	70.934449
1114.394	70.178622
1114.564	70.167702
1114.735	70.572500
1114.905	70.187566
1115.076	69.077786
1115.246	68.744570
1115.416	68.592609
1115.587	68.291540
1115.757	68.612142
1115.927	68.801447
1116.098	67.928811
1116.268	67.860617
1116.438	68.279388
1116.609	68.016845
1116.779	67.759080
1116.949	68.158084
1117.119	67.993212
1117.289	67.767463
1117.459	67.708308
1117.630	67.443534
1117.800	67.053261
1117.970	67.458232
1118.140	67.904553
1118.310	67.347544
1118.480	66.677825
1118.650	65.845693
1118.820	65.030452
1118.990	64.784081
1119.160	64.253090
1119.330	64.007885
1119.500	63.555880
1119.670	63.232150
1119.840	63.100095
1120.010	63.018221
1120.179	63.409041
1120.349	63.517255
1120.519	63.807543
1120.689	64.061318
1120.859	63.742878
1121.028	63.716617
1121.198	63.311595
1121.368	63.198892
1121.538	63.296669
1121.707	63.203069
1121.877	63.158698
1122.047	62.967069
1122.216	62.960303
1122.386	63.451037
1122.555	63.616609
1122.725	64.037088
1122.894	64.150862
1123.064	63.901381
1123.233	63.966444
1123.403	63.254483
1123.573	62.896908
1123.742	62.744804
1123.911	62.556744
1124.081	62.524922
1124.250	61.985174
1124.419	61.132247
1124.589	60.423195
1124.758	59.910720
1124.927	60.161749
1125.097	59.988504
1125.266	59.997563
1125.435	59.980515
1125.605	59.537801
1125.774	58.826728
1125.943	58.844995
1126.112	59.400063
1126.281	59.646332
1126.450	59.718017
1126.620	60.247603
1126.789	60.719592
1126.958	60.899502
1127.127	61.369512
1127.296	61.591460
1127.465	62.494861
1127.634	62.635129
1127.803	61.948934
1127.972	61.237598
1128.141	61.081763
1128.310	61.645636
1128.479	61.717663
1128.648	61.653049
1128.817	61.243725
1128.985	60.774080
1129.154	60.760125
1129.323	59.705277
1129.492	59.290717
1129.661	59.311113
1129.829	59.269314
1129.998	58.901173
1130.167	58.449726
1130.336	58.002317
1130.504	57.511105
1130.673	57.454410
1130.842	57.818050
1131.010	57.685097
1131.179	57.715508
1131.347	58.083877
1131.516	58.064874
1131.685	58.170815
1131.853	58.387732
1132.022	58.016878
1132.190	57.764535
1132.359	57.814762
1132.527	57.652618
1132.696	56.850151
1132.864	56.495141
1133.032	56.471200
1133.201	56.070315
1133.369	56.047576
1133.537	55.612912
1133.706	55.615246
1133.874	55.253519
1134.042	55.048252
1134.211	54.131265
1134.379	53.810432
1134.547	54.220170
1134.715	54.040150
1134.884	54.135676
1135.052	54.581714
1135.220	54.282519
1135.388	54.322329
1135.556	54.092955
1135.724	54.574770
1135.892	55.354460
1136.060	56.093993
1136.228	56.335842
1136.396	55.797383
1136.564	55.723807
1136.732	55.550949
1136.900	55.208396
1137.068	54.865072
1137.236	54.828962
1137.404	54.776184
1137.572	54.145727
1137.740	53.297713
1137.908	52.957353
1138.076	52.486292
1138.243	52.561936
1138.411	52.617557
1138.579	52.382441
1138.747	52.214749
1138.914	52.880284
1139.082	52.771642
1139.250	52.410664
1139.417	52.557761
1139.585	52.189714
1139.753	51.985526
1139.920	52.166796
1140.088	52.026251
1140.256	51.687193
1140.423	51.412651
1140.591	51.114517
1140.758	50.677665
1140.926	50.790700
1141.093	51.246774
1141.261	51.366683
1141.428	51.911293
1141.596	52.135477
1141.763	51.877055
1141.930	51.747800
1142.098	51.771978
1142.265	52.129789
1142.432	52.639270
1142.600	52.461493
1142.767	51.742511
1142.934	51.089931
1143.102	51.371231
1143.269	51.283147
1143.436	50.720185
1143.603	50.781738
1143.771	50.871975
1143.938	50.855784
1144.105	50.910717
1144.272	50.603505
1144.439	50.339417
1144.606	50.419353
1144.773	50.554247
1144.940	49.648089
1145.107	49.540285
1145.274	49.915577
1145.441	50.049430
1145.608	49.875429
1145.775	49.692003
1145.942	49.391782
1146.109	49.401823
1146.276	49.690311
1146.443	49.640434
1146.610	49.606744
1146.776	50.108047
1146.943	49.848807
1147.110	49.462747
1147.277	49.506043
1147.444	49.423441
1147.610	49.802461
1147.777	49.305947
1147.944	48.646789
1148.110	48.729760
1148.277	48.700835
1148.444	48.102614
1148.610	47.775103
1148.777	47.830125
1148.944	47.773450
1149.110	47.506792
1149.277	47.539804
1149.443	47.008296
1149.610	46.823615
1149.776	46.802186
1149.943	46.381620
1150.109	46.380080
1150.276	46.937763
1150.442	47.046563
1150.608	46.742626
1150.775	46.947215
1150.941	46.750887
1151.107	47.072196
1151.274	47.359059
1151.440	47.254419
1151.606	47.332230
1151.773	47.645044
1151.939	47.455118
1152.105	47.088246
1152.271	46.453219
1152.438	46.403564
1152.604	45.920561
1152.770	45.593343
1152.936	44.533763
1153.102	43.901361
1153.268	43.936765
1153.434	43.802493
1153.600	43.274914
1153.766	43.210703
1153.932	43.003596
1154.098	43.190157
1154.264	43.181960
1154.430	43.046160
1154.596	42.687170
1154.762	42.837096
1154.928	42.898088
1155.094	42.453710
1155.260	42.181576
1155.426	42.205920
1155.591	41.861257
1155.757	41.913999
1155.923	42.076491
1156.089	42.469549
1156.255	42.652830
1156.420	42.828173
1156.586	43.121035
1156.752	43.293301
1156.917	43.596653
1157.083	43.306970
1157.249	43.083348
1157.414	42.784364
1157.580	42.775457
1157.745	43.013669
1157.911	42.286898
1158.076	42.172585
1158.242	42.677410
1158.407	42.597169
1158.573	42.670410
1158.738	42.558181
1158.904	42.777212
1159.069	43.065666
1159.235	43.533938
1159.400	43.655820
1159.565	42.958732
1159.731	42.879328
1159.896	42.713999
1160.061	42.094117
1160.227	42.016449
1160.392	41.594993
1160.557	41.814693
1160.722	42.332078
1160.888	42.205968
1161.053	42.702361
1161.218	42.501462
1161.383	42.567444
1161.548	42.462851
1161.713	42.398460
1161.878	42.397452
1162.043	42.495295
1162.208	42.510153
1162.374	41.937540
1162.539	41.006594
1162.704	40.808408
1162.869	39.689791
1163.033	39.692897
1163.198	40.117386
1163.363	40.172721
1163.528	39.703000
1163.693	39.506329
1163.858	38.658006
1164.023	38.042231
1164.188	38.348746
1164.353	38.949923
1164.517	38.834112
1164.682	39.467943
1164.847	39.137267
1165.011	38.038142
1165.176	37.893082
1165.341	38.479585
1165.506	39.295207
1165.670	39.794780
1165.835	40.026902
1166.000	39.598786
1166.164	39.116123
1166.329	38.808048
1166.493	38.451931
1166.658	38.660168
1166.822	39.466711
1166.987	39.871942
1167.151	39.752017
1167.316	39.266097
1167.480	39.164116
1167.645	39.310508
1167.809	39.530962
1167.973	39.686205
1168.138	39.850011
1168.302	39.834469
1168.466	39.582770
1168.631	38.878986
1168.795	38.594345
1168.959	38.768654
1169.124	38.172519
1169.288	37.878784
1169.452	37.703017
1169.616	37.629035
1169.780	37.354146
1169.944	37.318000
1170.109	37.184780
1170.273	36.830302
1170.437	36.786963
1170.601	36.600048
1170.765	36.256933
1170.929	36.131402
1171.093	35.908040
1171.257	35.699466
1171.421	35.522944
1171.585	35.464424
1171.749	35.451105
1171.913	35.324139
1172.077	35.488036
1172.240	35.633092
1172.404	35.846296
1172.568	35.796394
1172.732	36.107631
1172.896	36.371641
1173.060	36.641834
1173.223	36.851305
1173.387	37.140409
1173.551	37.097908
1173.715	37.493116
1173.878	37.857132
1174.042	38.066152
1174.206	37.617508
1174.369	37.335931
1174.533	37.205704
1174.696	36.926470
1174.860	36.717765
1175.023	36.820122
1175.187	36.965643
1175.351	37.047835
1175.514	36.888078
1175.677	36.868341
1175.841	36.954229
1176.004	37.033945
1176.168	37.494005
1176.331	37.976017
1176.495	38.632273
1176.658	39.143685
1176.821	39.236577
1176.985	39.131729
1177.148	39.221751
1177.311	38.983070
1177.474	38.423231
1177.638	37.925021
1177.801	38.276989
1177.964	38.457483
1178.127	38.253242
1178.291	37.927600
1178.454	37.508098
1178.617	36.734542
1178.780	36.346891
1178.943	35.791094
1179.106	35.469417
1179.269	36.206839
1179.432	36.600473
1179.595	36.328849
1179.758	36.078178
1179.921	35.897498
1180.084	36.063948
1180.247	36.074980
1180.410	36.428036
1180.573	36.567027
1180.736	36.937017
1180.899	37.193413
1181.061	36.190471
1181.224	35.723080
1181.387	35.473197
1181.550	35.130022
1181.713	35.030823
1181.875	34.764340
1182.038	34.509236
1182.201	34.377622
1182.363	34.096010
1182.526	34.162099
1182.689	34.709396
1182.851	35.433720
1183.014	35.883638
1183.177	36.259233
1183.339	36.461822
1183.502	37.066278
1183.664	37.409735
1183.827	37.453868
1183.989	37.644665
1184.152	38.132836
1184.314	38.011177
1184.477	37.500503
1184.639	37.418899
1184.801	37.409064
1184.964	37.144275
1185.126	37.069895
1185.288	37.076291
1185.451	36.909536
1185.613	37.088080
1185.775	36.946633
1185.938	36.781178
1186.100	37.126790
1186.262	37.051858
1186.424	36.926909
1186.586	36.739524
1186.749	36.427093
1186.911	36.343235
1187.073	35.944810
1187.235	36.087818
1187.397	36.505593
1187.559	36.923835
1187.721	36.951608
1187.883	36.512931
1188.045	36.487061
1188.207	36.725053
1188.369	36.995090
1188.531	37.424616
1188.693	37.434022
1188.855	36.837801
1189.017	36.018705
1189.179	35.474281
1189.341	35.022690
1189.502	35.393966
1189.664	35.451933
1189.826	35.744971
1189.988	35.432670
1190.150	35.230496
1190.311	35.218670
1190.473	35.575809
1190.635	36.673105
1190.796	37.253871
1190.958	37.267511
1191.120	37.531932
1191.281	37.381450
1191.443	37.534457
1191.604	37.679464
1191.766	38.119248
1191.928	38.244253
1192.089	38.325451
1192.251	38.002793
1192.412	37.657973
1192.574	37.746587
1192.735	37.608902
1192.896	37.478641
1193.058	37.337306
1193.219	37.017521
1193.381	36.667578
1193.542	36.444682
1193.703	36.897754
1193.865	37.244390
1194.026	37.302939
1194.187	37.422127
1194.349	37.471007
1194.510	38.102095
1194.671	38.617426
1194.832	38.663367
1194.993	39.288829
1195.155	39.564759
1195.316	39.346912
1195.477	39.098377
1195.638	39.023016
1195.799	39.148079
1195.960	39.290035
1196.121	39.249947
1196.282	39.025287
1196.443	39.009408
1196.604	39.189411
1196.765	38.623457
1196.926	38.945288
1197.087	39.542378
1197.248	39.587411
1197.409	39.648386
1197.570	39.655007
1197.730	39.391480
1197.891	39.323232
1198.052	39.301619
1198.213	39.525471
1198.374	40.003070
1198.534	40.572325
1198.695	40.210247
1198.856	39.746429
1199.016	39.318590
1199.177	39.243329
1199.338	39.117563
1199.498	39.331787
1199.659	39.289276
1199.820	39.435561
1199.980	39.000036
1200.141	38.565231
1200.301	38.383567
1200.462	38.195904
1200.622	38.732098
1200.783	39.137837
1200.943	39.165645
1201.104	39.337636
1201.264	39.174347
1201.424	39.631439
1201.585	39.932540
1201.745	40.286332
1201.906	40.146764
1202.066	40.500490
1202.226	41.047470
1202.386	41.120720
1202.547	41.050126
1202.707	41.432525
1202.867	41.382841
1203.027	41.105231
1203.188	41.100333
1203.348	40.604512
1203.508	40.284896
1203.668	40.317036
1203.828	40.346588
1203.988	40.059985
1204.148	39.334421
1204.308	39.181613
1204.468	38.498855
1204.628	38.501391
1204.788	38.716375
1204.948	38.462735
1205.108	38.716354
1205.268	38.567377
1205.428	39.013461
1205.588	38.900323
1205.748	39.042296
1205.908	39.582973
1206.068	39.908746
1206.228	40.389641
1206.387	40.538715
1206.547	40.773608
1206.707	41.196648
1206.867	41.394582
1207.026	41.702858
1207.186	41.608911
1207.346	41.861210
1207.505	41.684058
1207.665	41.256215
1207.825	41.400300
1207.984	41.483338
1208.144	41.496537
1208.303	41.602995
1208.463	41.479811
1208.622	41.912084
1208.782	42.457368
1208.941	42.820938
1209.101	42.549671
1209.260	42.816763
1209.420	43.236766
1209.579	43.165672
1209.739	43.146491
1209.898	43.223516
1210.057	43.080452
1210.217	43.199795
1210.376	43.027082
1210.535	42.760389
1210.694	42.271611
1210.854	42.505960
1211.013	42.719549
1211.172	42.996922
1211.331	43.296922
1211.490	43.120238
1211.650	43.014315
1211.809	43.006514
1211.968	43.367542
1212.127	43.711845
1212.286	43.713355
1212.445	44.068180
1212.604	44.139477
1212.763	44.044161
1212.922	44.246926
1213.081	44.365815
1213.240	44.783944
1213.399	45.088233
1213.558	45.758181
1213.717	45.553353
1213.876	45.085168
1214.035	45.401434
1214.194	45.275848
1214.352	45.114409
1214.511	45.203481
1214.670	45.196384
1214.829	45.163373
1214.988	45.625755
1215.146	45.749160
1215.305	45.886556
1215.464	46.365025
1215.622	46.517106
1215.781	46.561847
1215.940	46.560895
1216.098	46.518637
1216.257	46.204343
1216.415	45.964359
1216.574	46.091934
1216.732	45.939583
1216.891	46.113700
1217.049	45.855610
1217.208	45.368719
1217.366	45.261112
1217.525	44.297926
1217.683	44.436403
1217.842	44.715269
1218.000	45.181004
1218.158	45.353772
1218.317	45.267430
1218.475	45.039379
1218.633	44.965392
1218.792	45.282946
1218.950	45.409741
1219.108	45.853360
1219.266	46.764984
1219.425	46.624733
1219.583	47.073027
1219.741	47.404114
1219.899	47.548936
1220.057	47.625899
1220.215	47.882524
1220.373	47.814424
1220.531	47.237420
1220.689	47.016509
1220.847	46.295291
1221.005	45.716492
1221.163	45.933294
1221.322	45.382000
1221.479	45.034116
1221.637	44.490513
1221.795	44.201514
1221.953	44.067759
1222.111	44.626122
1222.269	45.015840
1222.427	45.680783
1222.584	46.259308
1222.742	46.744415
1222.900	46.792826
1223.058	47.126344
1223.216	47.570008
1223.373	48.444268
1223.531	48.921786
1223.689	48.763079
1223.846	48.311905
1224.004	47.834353
1224.162	47.535101
1224.319	47.481598
1224.477	47.943169
1224.634	48.392893
1224.792	48.662533
1224.949	48.371184
1225.107	48.577249
1225.264	48.768518
1225.422	49.225575
1225.579	49.131951
1225.737	49.580751
1225.894	49.862114
1226.052	50.486659
1226.209	50.605028
1226.366	50.514234
1226.523	50.791218
1226.681	51.421892
1226.838	51.508871
1226.995	51.223271
1227.153	51.189032
1227.310	51.601153
1227.467	51.483723
1227.624	51.146893
1227.781	50.992011
1227.938	51.081122
1228.096	50.577779
1228.253	49.392307
1228.410	48.394149
1228.567	47.288680
1228.724	46.834472
1228.881	46.823560
1229.038	46.785115
1229.195	46.784480
1229.352	46.522893
1229.509	46.187159
1229.666	45.764399
1229.823	46.221855
1229.980	47.008999
1230.136	47.301923
1230.293	47.925189
1230.450	48.562107
1230.607	48.735748
1230.764	48.822103
1230.921	48.568335
1231.077	48.639914
1231.234	48.854799
1231.391	48.964431
1231.547	49.066783
1231.704	48.892178
1231.861	49.280850
1232.018	49.171672
1232.174	48.798353
1232.331	48.517661
1232.487	48.743893
1232.644	49.820566
1232.800	50.482499
1232.957	50.369351
1233.113	50.264578
1233.270	50.179149
1233.426	50.429243
1233.583	49.862507
1233.739	49.852251
1233.896	50.374990
1234.052	50.794718
1234.208	50.523660
1234.365	49.683371
1234.521	49.403564
1234.677	48.873164
1234.834	48.536310
1234.990	48.255018
1235.146	48.464089
1235.302	49.028174
1235.459	49.043340
1235.615	48.779384
1235.771	49.080092
1235.927	49.571381
1236.083	50.227055
1236.239	50.550996
1236.396	51.363693
1236.552	51.772722
1236.708	52.049934
1236.864	52.119834
1237.020	52.362320
1237.176	52.805204
1237.332	53.276053
1237.488	52.904477
1237.644	52.394806
1237.799	52.196581
1237.955	51.901598
1238.111	51.573200
1238.267	51.991124
1238.423	52.477992
1238.579	52.260953
1238.734	52.375394
1238.890	52.903612
1239.046	53.081529
1239.202	53.348563
1239.357	53.577698
1239.513	54.008092
1239.669	54.506931
1239.824	55.171746
1239.980	55.437523
1240.136	55.688587
1240.291	56.184683
1240.447	56.089439
1240.603	55.571738
1240.758	55.126199
1240.914	55.089680
1241.069	55.456160
1241.225	55.234392
1241.380	55.376254
1241.535	55.400558
1241.691	54.830924
1241.846	53.817549
1242.002	53.107760
1242.157	52.431726
1242.313	52.173763
1242.468	52.405164
1242.623	52.322093
1242.778	52.264168
1242.934	52.022098
1243.089	51.649857
1243.244	51.134491
1243.399	51.665178
1243.554	52.298235
1243.710	52.616908
1243.865	53.304353
1244.020	53.319713
1244.175	53.163658
1244.330	54.069170
1244.485	54.587475
1244.640	55.329700
1244.795	56.181206
1244.950	56.956757
1245.105	57.052298
1245.260	57.319419
1245.415	57.363342
1245.570	57.391609
1245.725	57.462995
1245.880	58.128009
1246.035	57.668300
1246.190	57.238163
1246.345	56.777919
1246.499	56.293420
1246.654	56.096778
1246.809	55.948743
1246.964	55.641297
1247.118	55.806799
1247.273	56.286292
1247.428	56.842612
1247.583	57.153669
1247.737	57.239834
1247.892	56.951861
1248.047	56.873749
1248.201	56.105843
1248.356	55.519654
1248.510	55.378299
1248.665	55.563113
1248.819	55.790970
1248.974	56.015398
1249.128	55.288329
1249.283	54.501985
1249.437	54.764708
1249.592	56.014459
1249.746	56.142341
1249.900	57.443984
1250.055	58.346806
1250.209	58.546370
1250.363	58.770467
1250.518	59.794309
1250.672	59.973416
1250.826	61.245974
1250.981	61.742036
1251.135	61.399804
1251.289	61.126976
1251.443	61.825164
1251.597	61.305927
1251.751	61.222170
1251.906	61.322232
1252.060	61.106014
1252.214	60.583457
1252.368	60.834841
1252.522	60.694364
1252.676	60.487719
1252.830	60.786245
1252.984	60.714774
1253.138	60.789805
1253.292	61.788335
1253.446	61.836213
1253.600	62.416831
1253.754	62.847896
1253.907	62.218172
1254.061	61.597240
1254.215	61.204285
1254.369	61.625963
1254.523	62.585344
1254.677	62.989551
1254.830	63.008479
1254.984	62.691382
1255.138	62.781448
1255.292	62.594769
1255.445	62.766191
1255.599	63.288391
1255.752	63.433483
1255.906	63.841787
1256.060	64.138146
1256.213	62.961901
1256.367	62.266934
1256.520	62.308387
1256.674	62.567741
1256.827	62.938440
1256.981	62.794326
1257.134	62.592538
1257.288	62.373133
1257.441	62.186648
1257.594	61.805762
1257.748	61.661087
1257.901	61.932476
1258.055	62.093295
1258.208	61.584194
1258.361	61.310951
1258.515	61.022856
1258.668	61.290259
1258.821	61.589532
1258.974	61.681842
1259.127	60.993813
1259.281	61.308059
1259.434	61.364853
1259.587	60.744932
1259.740	60.800194
1259.893	62.184943
1260.046	61.609057
1260.199	61.109246
1260.352	60.774829
1260.505	60.055606
1260.658	59.645676
1260.811	60.176834
1260.964	60.472645
1261.117	60.149354
1261.270	61.193715
1261.423	60.993418
1261.576	59.653598
1261.729	59.575953
1261.882	60.071032
1262.035	60.537847
1262.188	61.396936
1262.340	61.655521
1262.493	62.395618
1262.646	62.541469
1262.798	63.108434
1262.951	63.244779
1263.104	64.409168
1263.257	64.193266
1263.409	63.959851
1263.562	63.064272
1263.714	62.307951
1263.867	61.684087
1264.020	62.474103
1264.172	62.924010
1264.325	63.111217
1264.477	62.540997
1264.630	61.945145
1264.782	61.490565
1264.935	61.932326
1265.087	63.319117
1265.240	64.430279
1265.392	64.603270
1265.544	65.451543
1265.697	64.781180
1265.849	64.025919
1266.001	62.574820
1266.154	62.088351
1266.306	62.175940
1266.458	61.771080
1266.610	62.426453
1266.762	61.935632
1266.915	61.475044
1267.067	61.212309
1267.219	60.795513
1267.371	61.985670
1267.523	62.806163
1267.675	64.100367
1267.828	65.112787
1267.979	65.653919
1268.132	65.883710
1268.284	65.489036
1268.436	65.711244
1268.588	66.628999
1268.740	68.265847
1268.891	69.394378
1269.043	69.106001
1269.195	67.563260
1269.347	67.461540
1269.499	67.143214
1269.651	67.101007
1269.803	67.665706
1269.955	67.733825
1270.106	66.819708
1270.258	66.301537
1270.410	65.957620
1270.562	65.636236
1270.713	65.366657
1270.865	66.453929
1271.017	66.158663
1271.168	65.296760
1271.320	64.473280
1271.471	63.544378
1271.623	63.127616
1271.775	63.360203
1271.926	63.513242
1272.078	62.221895
1272.229	61.549921
1272.381	62.063497
1272.532	62.429086
1272.684	61.659520
1272.835	62.061716
1272.986	62.894278
1273.138	63.305179
1273.289	64.422264
1273.440	65.022755
1273.592	65.471476
1273.743	68.187877
1273.894	69.322143
1274.046	69.888661
1274.197	69.781748
1274.348	71.586424
1274.500	73.307241
1274.651	73.596831
1274.802	74.908121
>>>>>>>>>> END of Data <<<<<<<<<<
