Date	2025年07月03日木曜日 09時46分49秒
Spectrometers	SR401765
ダーク	使用
リファレンス	使用
積分時間[msec]	300
平均回数	1
ｽﾑｰｼﾞﾝｸﾞ	5
Electrical Dark	USE
ピクセル数	3648
計測モード	反射率
保存開始波長[nm]	598.495
保存終了波長[nm]	1274.802
保存ﾋﾟｯﾁ波長[nm]	全波長

>>>>>>>>>> Data Start <<<<<<<<<<<<
598.495	0.000000
598.713	0.000000
598.931	0.000000
599.148	0.000000
599.366	0.000000
599.584	0.000000
599.802	0.000000
600.020	-56.867981
600.238	68.804559
600.455	-459.470138
600.673	0.000000
600.891	12.764408
601.109	17.878139
601.326	19.285180
601.544	20.190994
601.762	20.575772
601.979	20.665737
602.197	20.869689
602.415	20.830005
602.632	20.809419
602.850	20.839894
603.067	20.809569
603.285	21.044750
603.502	21.281153
603.720	21.466519
603.938	21.589035
604.155	21.805114
604.372	22.104374
604.590	22.309934
604.807	22.593727
605.025	22.714707
605.242	22.835889
605.460	23.059640
605.677	23.258955
605.894	23.475577
606.112	23.667023
606.329	23.775336
606.546	23.811109
606.764	23.882996
606.981	24.182611
607.198	24.488894
607.415	24.806403
607.633	25.149522
607.850	25.533171
608.067	25.673781
608.284	25.735091
608.501	25.900421
608.718	26.115583
608.935	26.316296
609.153	26.474978
609.370	26.476295
609.587	26.628921
609.804	26.799923
610.021	26.929206
610.238	26.886919
610.455	27.069163
610.672	27.232372
610.889	27.398027
611.106	27.512875
611.323	27.756774
611.540	28.106435
611.756	28.328216
611.973	28.379874
612.190	28.498873
612.407	28.708585
612.624	28.984287
612.841	29.152324
613.057	29.426381
613.274	29.535034
613.491	29.688744
613.708	29.963523
613.925	30.094856
614.141	30.251773
614.358	30.422265
614.575	30.637886
614.791	30.784989
615.008	30.892008
615.225	31.223453
615.441	31.547317
615.658	31.743698
615.874	32.116939
616.091	32.294246
616.307	32.583339
616.524	32.846816
616.740	33.126831
616.957	33.318256
617.173	33.509473
617.390	33.909760
617.606	34.229803
617.823	34.575148
618.039	34.813209
618.256	34.880886
618.472	35.134831
618.688	35.301428
618.905	35.633589
619.121	36.122649
619.337	36.487075
619.554	36.821239
619.770	37.004377
619.986	37.051794
620.202	37.031597
620.419	37.211154
620.635	37.411694
620.851	37.505257
621.067	37.707815
621.283	37.769550
621.499	37.641579
621.716	37.715615
621.932	37.887659
622.148	38.208122
622.364	38.418437
622.580	38.564983
622.796	38.919128
623.012	39.364550
623.228	39.621783
623.444	39.789329
623.660	40.110526
623.876	40.567112
624.092	41.093985
624.308	41.334793
624.524	41.368802
624.740	41.499455
624.955	41.655182
625.171	41.712341
625.387	41.768822
625.603	42.055352
625.819	42.418779
626.034	42.704898
626.250	43.053033
626.466	43.266155
626.682	43.689145
626.897	43.935950
627.113	44.173806
627.329	44.528551
627.544	44.787668
627.760	44.899451
627.976	44.880697
628.191	44.875103
628.407	44.916308
628.623	44.867347
628.838	44.826773
629.054	44.816210
629.269	45.052168
629.485	45.565177
629.700	45.927785
629.916	46.264801
630.131	46.617628
630.347	46.910419
630.562	47.284002
630.777	47.639215
630.993	47.855699
631.208	48.158506
631.424	48.577548
631.639	49.068638
631.854	49.295635
632.070	49.636580
632.285	49.962672
632.500	50.336339
632.715	50.773667
632.931	51.080197
633.146	51.256422
633.361	51.546274
633.576	51.944219
633.791	52.220431
634.007	52.318886
634.222	52.428828
634.437	52.588290
634.652	52.736156
634.867	52.938759
635.082	53.241086
635.297	53.437496
635.512	53.561593
635.727	53.703418
635.942	53.678694
636.157	53.691158
636.372	53.737927
636.587	53.752667
636.802	53.631410
637.017	53.709020
637.232	53.758541
637.447	53.648718
637.662	53.547349
637.876	53.702380
638.091	53.863075
638.306	53.972217
638.521	54.106131
638.736	54.252455
638.951	54.290235
639.165	54.486800
639.380	54.637138
639.595	54.793076
639.809	54.979975
640.024	55.111849
640.239	55.119558
640.453	55.266974
640.668	55.556794
640.883	55.752325
641.097	55.915777
641.312	56.238423
641.526	56.517368
641.741	56.771129
641.955	57.003161
642.170	57.379902
642.384	57.851363
642.599	58.123473
642.813	58.168903
643.028	58.302099
643.242	58.537748
643.457	58.715122
643.671	58.865509
643.885	58.832644
644.100	58.774309
644.314	58.812401
644.528	58.651857
644.743	58.555773
644.957	58.660997
645.171	58.917281
645.386	58.914042
645.600	58.887511
645.814	58.993674
646.028	59.175141
646.242	59.549315
646.457	59.843958
646.671	59.861764
646.885	60.035526
647.099	60.273698
647.313	60.568543
647.527	60.734326
647.741	60.723831
647.955	60.565101
648.169	60.561399
648.383	60.615337
648.597	60.723566
648.811	60.810852
649.025	61.007852
649.239	61.327302
649.453	61.605847
649.667	61.870761
649.881	62.110435
650.095	62.591669
650.309	63.223586
650.523	63.676002
650.737	64.053040
650.950	64.244126
651.164	64.368625
651.378	64.737745
651.592	65.032605
651.805	65.308818
652.019	65.542795
652.233	65.628092
652.447	65.715328
652.660	65.703648
652.874	65.765017
653.088	65.844401
653.301	65.908380
653.515	66.037436
653.728	65.989910
653.942	65.907595
654.156	65.882555
654.369	65.834740
654.583	65.899177
654.796	66.111661
655.010	66.302213
655.223	66.334905
655.437	66.300547
655.650	66.291017
655.863	66.382620
656.077	66.605755
656.290	66.807376
656.504	66.982999
656.717	67.102571
656.930	67.253962
657.144	67.239883
657.357	67.419494
657.570	67.689705
657.783	67.948772
657.997	68.155217
658.210	68.485649
658.423	68.738526
658.636	68.785426
658.849	68.790395
659.063	68.703457
659.276	68.672974
659.489	68.645138
659.702	68.540913
659.915	68.601936
660.128	68.690803
660.341	68.781251
660.554	68.850965
660.767	68.815994
660.980	68.870214
661.193	68.984457
661.406	69.222572
661.619	69.421479
661.832	69.555192
662.045	69.648996
662.258	69.619067
662.471	69.604874
662.684	69.862257
662.897	69.870916
663.110	69.828289
663.322	69.724449
663.535	69.605946
663.748	69.739441
663.961	69.992120
664.174	70.226236
664.386	70.363897
664.599	70.437266
664.812	70.669464
665.024	70.792599
665.237	70.984971
665.450	71.126734
665.662	71.198473
665.875	71.201212
666.088	71.000981
666.300	70.762970
666.513	70.714848
666.725	70.801467
666.938	70.810063
667.150	70.706835
667.363	70.521650
667.575	70.635008
667.788	70.882722
668.000	71.133981
668.213	71.337260
668.425	71.614360
668.638	71.828749
668.850	71.927778
669.062	71.938012
669.275	72.119049
669.487	72.516964
669.699	72.801051
669.912	72.730780
670.124	72.600115
670.336	72.578015
670.548	72.512216
670.761	72.546431
670.973	72.625077
671.185	72.731938
671.397	72.943517
671.609	73.116516
671.822	72.935747
672.034	72.895905
672.246	72.977309
672.458	73.069292
672.670	73.184412
672.882	73.344929
673.094	73.205605
673.306	73.172746
673.518	73.234440
673.730	73.235102
673.942	73.191722
674.154	73.139776
674.366	73.094324
674.578	73.202025
674.790	73.311552
675.002	73.225842
675.214	73.230591
675.425	73.526208
675.637	73.768812
675.849	73.850878
676.061	74.000946
676.273	74.238935
676.484	74.337632
676.696	74.335450
676.908	74.190246
677.120	74.234057
677.331	74.282822
677.543	74.219848
677.755	74.099698
677.966	73.963625
678.178	73.832825
678.389	73.493423
678.601	73.017580
678.813	72.970352
679.024	73.116234
679.236	73.204476
679.447	73.132450
679.659	73.265402
679.870	73.630907
680.082	73.776284
680.293	73.678476
680.505	73.676628
680.716	73.898705
680.927	74.372305
681.139	74.524429
681.350	74.424707
681.562	74.174981
681.773	74.086663
681.984	74.165867
682.196	74.124488
682.407	74.115228
682.618	74.224738
682.829	74.368622
683.041	74.427077
683.252	74.397706
683.463	74.564269
683.674	74.818782
683.885	75.425727
684.097	75.783493
684.308	75.824401
684.519	75.767606
684.730	75.810830
684.941	75.874859
685.152	75.714105
685.363	75.511821
685.574	75.377818
685.785	75.199857
685.996	75.107385
686.207	75.005629
686.418	74.911189
686.629	74.854987
686.840	74.786154
687.051	74.649866
687.262	74.552980
687.473	74.648569
687.684	74.924565
687.894	75.023460
688.105	74.938726
688.316	74.673278
688.527	74.397606
688.738	74.574667
688.948	75.026618
689.159	75.322387
689.370	75.661824
689.580	76.018253
689.791	76.162176
690.002	76.153644
690.212	76.165018
690.423	76.432144
690.634	76.754764
690.844	77.048013
691.055	77.092573
691.266	76.992803
691.476	77.129700
691.687	77.172000
691.897	77.097796
692.108	77.223236
692.318	77.498940
692.529	77.593745
692.739	77.525809
692.949	77.561424
693.160	77.437152
693.370	77.312450
693.581	77.225996
693.791	77.095638
694.001	77.082868
694.212	77.064472
694.422	77.200372
694.632	77.294982
694.843	77.400990
695.053	77.542242
695.263	77.755257
695.473	78.029143
695.683	78.148208
695.894	78.302151
696.104	78.387915
696.314	78.286179
696.524	78.202019
696.734	77.705363
696.944	77.244474
697.154	77.228312
697.365	77.092931
697.575	76.743270
697.785	76.428304
697.995	76.166458
698.205	75.920565
698.415	75.819620
698.625	75.929495
698.834	76.188959
699.044	76.522144
699.254	76.694715
699.464	76.561732
699.674	76.526700
699.884	76.715554
700.094	76.986335
700.304	77.215257
700.513	77.035507
700.723	76.809126
700.933	76.724256
701.143	76.627231
701.353	76.675134
701.562	76.676365
701.772	76.807033
701.982	77.025706
702.191	76.994886
702.401	76.794571
702.611	76.569948
702.820	76.582669
703.030	76.683196
703.239	76.764033
703.449	76.607341
703.659	76.407632
703.868	76.436363
704.078	76.326874
704.287	76.139550
704.497	76.245488
704.706	76.564430
704.916	76.873323
705.125	77.170458
705.334	77.343523
705.544	77.425036
705.753	77.710752
705.962	78.086946
706.172	78.194033
706.381	78.342993
706.590	78.578456
706.800	78.601617
707.009	78.364307
707.218	78.171874
707.428	78.062689
707.637	78.076867
707.846	77.975995
708.055	77.709115
708.264	77.466913
708.474	77.423588
708.683	77.527013
708.892	77.577688
709.101	77.694011
709.310	77.892594
709.519	78.066916
709.728	78.196068
709.937	78.139671
710.146	78.041294
710.355	78.211417
710.564	78.404883
710.773	78.580579
710.982	78.538291
711.191	78.356683
711.400	78.067448
711.609	77.929900
711.818	78.031099
712.027	78.121605
712.235	78.226346
712.444	78.253326
712.653	78.189965
712.862	78.034090
713.071	77.842798
713.279	77.546521
713.488	77.312020
713.697	77.158186
713.906	76.975890
714.114	76.760224
714.323	76.360786
714.532	75.864234
714.740	75.561098
714.949	75.249218
715.157	75.178081
715.366	75.052069
715.575	75.046991
715.783	75.240477
715.992	75.493410
716.200	75.630425
716.409	75.625464
716.617	75.892127
716.826	76.380118
717.034	76.874954
717.242	77.316008
717.451	77.400771
717.659	77.403770
717.868	77.473652
718.076	77.537944
718.284	77.483089
718.493	77.577269
718.701	77.581529
718.909	77.292185
719.118	76.924117
719.326	76.748375
719.534	76.689740
719.742	76.630328
719.951	76.684215
720.159	76.740946
720.367	76.581158
720.575	76.466525
720.783	76.316784
720.991	76.328434
721.199	76.429495
721.408	76.322078
721.616	76.026213
721.824	75.647660
722.032	75.482580
722.240	75.512090
722.448	75.789399
722.656	76.175805
722.864	76.495729
723.072	76.513115
723.280	76.420565
723.487	76.620433
723.695	77.151758
723.903	77.749794
724.111	78.364267
724.319	78.795117
724.527	78.956989
724.735	78.685196
724.942	78.284625
725.150	78.040545
725.358	78.111824
725.566	78.413118
725.773	78.515811
725.981	78.198073
726.189	77.781885
726.396	77.443725
726.604	77.115055
726.812	76.818018
727.019	76.937743
727.227	77.163069
727.435	77.121889
727.642	76.906142
727.850	76.604309
728.057	76.504920
728.265	76.781354
728.472	76.926621
728.680	76.888572
728.887	76.889829
729.095	76.863965
729.302	76.521304
729.509	76.242917
729.717	76.160486
729.924	75.976379
730.132	75.654253
730.339	75.450846
730.546	75.325940
730.753	75.277693
730.961	75.204997
731.168	75.144598
731.375	75.288127
731.583	75.476401
731.790	75.381229
731.997	75.306164
732.204	75.569525
732.411	75.895688
732.618	76.048776
732.826	75.970166
733.033	75.782244
733.240	75.522710
733.447	75.177157
733.654	74.804576
733.861	74.567806
734.068	74.548992
734.275	74.420229
734.482	74.042121
734.689	73.402873
734.896	72.547764
735.103	72.038582
735.310	71.941868
735.517	72.040392
735.724	72.256801
735.931	72.422113
736.137	72.471804
736.344	72.470492
736.551	72.442585
736.758	72.630893
736.965	73.257115
737.171	73.906638
737.378	74.290898
737.585	74.321261
737.792	74.285449
737.998	74.245881
738.205	74.102860
738.412	73.869426
738.618	73.701086
738.825	73.653250
739.032	73.447960
739.238	73.069562
739.445	72.842434
739.651	72.576637
739.858	72.454226
740.064	72.340910
740.271	72.222520
740.477	72.255413
740.684	72.602448
740.890	73.066741
741.097	73.330463
741.303	73.506673
741.510	73.718254
741.716	73.866398
741.922	74.094552
742.129	74.298186
742.335	74.585073
742.541	74.631870
742.748	74.610099
742.954	74.396668
743.160	73.888218
743.366	73.624894
743.573	73.451026
743.779	73.180050
743.985	72.905977
744.191	72.730543
744.397	72.680997
744.604	72.395189
744.810	72.139202
745.016	71.847617
745.222	71.592002
745.428	71.642913
745.634	71.855857
745.840	72.220981
746.046	72.609357
746.252	72.919205
746.458	72.789660
746.664	72.482328
746.870	72.552555
747.076	73.073977
747.282	73.527245
747.488	73.459645
747.694	73.219982
747.900	72.678193
748.105	71.994234
748.311	71.574792
748.517	71.391434
748.723	71.593196
748.929	71.853218
749.134	71.854750
749.340	71.445712
749.546	71.052903
749.752	71.206054
749.957	71.431947
750.163	71.642945
750.369	71.754245
750.574	71.690668
750.780	71.597265
750.985	71.508078
751.191	71.465548
751.397	71.648777
751.602	71.890259
751.808	72.061320
752.013	72.212008
752.219	72.320403
752.424	72.133581
752.630	71.882409
752.835	71.668080
753.041	71.437894
753.246	71.260174
753.451	70.862836
753.657	70.157423
753.862	69.633367
754.067	69.399324
754.273	68.905562
754.478	68.244966
754.683	68.079330
754.889	68.156353
755.094	68.136364
755.299	68.085709
755.504	67.907261
755.710	67.875438
755.915	67.982748
756.120	67.801284
756.325	67.517676
756.530	67.567578
756.735	67.807565
756.940	67.832354
757.146	67.741148
757.351	67.777421
757.556	67.811321
757.761	67.847265
757.966	67.919217
758.171	68.034126
758.376	68.338352
758.581	68.463464
758.786	68.205600
758.990	67.717828
759.195	67.402511
759.400	67.310127
759.605	67.346457
759.810	67.481451
760.015	67.654118
760.220	67.528640
760.424	67.195340
760.629	66.992400
760.834	66.880541
761.039	66.862934
761.244	67.160728
761.448	67.361041
761.653	67.363433
761.858	67.100384
762.062	66.794842
762.267	66.555168
762.472	66.379633
762.676	66.453883
762.881	66.372845
763.085	66.305905
763.290	66.258314
763.494	66.140913
763.699	66.215486
763.903	66.372121
764.108	66.507943
764.312	66.483188
764.517	66.270113
764.721	66.120596
764.926	65.983568
765.130	65.902892
765.335	65.831265
765.539	65.738549
765.743	65.645979
765.948	65.442712
766.152	65.241443
766.356	64.868469
766.560	64.385188
766.765	63.880548
766.969	63.582177
767.173	63.117954
767.377	62.651850
767.582	62.333422
767.786	62.172613
767.990	61.950175
768.194	61.707543
768.398	61.444985
768.602	61.266543
768.806	61.247844
769.010	61.334871
769.215	61.359969
769.419	61.489195
769.623	61.756273
769.827	61.883963
770.031	61.946522
770.234	61.949050
770.438	61.680098
770.642	61.390307
770.846	61.437991
771.050	61.475467
771.254	61.530799
771.458	61.542269
771.662	61.170416
771.866	60.477963
772.069	59.955991
772.273	59.579693
772.477	59.277287
772.681	59.350379
772.885	59.409093
773.088	59.106301
773.292	58.667091
773.496	58.128186
773.699	57.800483
773.903	57.914045
774.107	58.120291
774.310	58.286134
774.514	58.357213
774.717	58.374056
774.921	58.102183
775.124	57.862508
775.328	57.753128
775.531	57.671277
775.735	57.731730
775.938	57.681421
776.142	57.597127
776.345	57.556588
776.549	57.270497
776.752	56.710121
776.956	56.333727
777.159	56.178939
777.362	56.045751
777.566	55.996404
777.769	56.104569
777.972	56.074558
778.176	55.661918
778.379	55.074453
778.582	54.517810
778.785	54.279307
778.989	54.419290
779.192	54.349766
779.395	54.244404
779.598	53.958354
779.801	53.543139
780.004	53.084929
780.207	52.703031
780.411	52.710942
780.614	52.750181
780.817	52.781836
781.020	52.645404
781.223	52.365510
781.426	52.084817
781.629	51.786793
781.832	51.543776
782.035	51.407937
782.238	51.327805
782.440	51.238498
782.643	51.017278
782.846	50.780233
783.049	50.519970
783.252	50.171567
783.455	49.706913
783.658	49.329246
783.860	48.984254
784.063	48.695984
784.266	48.308169
784.469	47.998745
784.671	47.623835
784.874	47.147334
785.077	46.734783
785.279	46.261701
785.482	45.951068
785.685	45.792345
785.887	45.646664
786.090	45.553342
786.293	45.360554
786.495	45.161484
786.698	44.917462
786.900	44.623882
787.103	44.499921
787.305	44.309475
787.508	44.157131
787.710	43.934072
787.913	43.546288
788.115	43.187176
788.317	42.746780
788.520	42.421207
788.722	42.129278
788.924	41.647639
789.127	41.358742
789.329	40.964144
789.531	40.660889
789.734	40.491513
789.936	40.442052
790.138	40.462441
790.340	40.413531
790.543	40.310329
790.745	40.122136
790.947	39.904772
791.149	39.713038
791.351	39.365649
791.553	39.047752
791.756	38.830703
791.958	38.542596
792.160	38.022866
792.362	37.444853
792.564	36.863957
792.766	36.310292
792.968	35.882597
793.170	35.617825
793.372	35.413384
793.574	35.256382
793.776	35.231179
793.978	35.128962
794.180	34.892856
794.381	34.776349
794.583	34.633740
794.785	34.522092
794.987	34.473523
795.189	34.384522
795.391	34.031739
795.592	33.676648
795.794	33.324437
795.996	32.828078
796.198	32.402395
796.399	32.075861
796.601	31.765025
796.803	31.571073
797.004	31.256388
797.206	30.860580
797.407	30.445155
797.609	30.153160
797.811	29.853813
798.012	29.631675
798.214	29.474213
798.415	29.159714
798.617	28.897063
798.818	28.447770
799.020	28.040874
799.221	27.752424
799.423	27.332727
799.624	26.920271
799.826	26.567328
800.027	26.231858
800.228	25.826040
800.430	25.416308
800.631	25.131008
800.832	24.776109
801.034	24.509706
801.235	24.282235
801.436	24.006321
801.637	23.844626
801.839	23.682020
802.040	23.399709
802.241	23.274301
802.442	23.159379
802.643	23.006794
802.844	22.739199
803.046	22.389791
803.247	22.176242
803.448	21.846390
803.649	21.506990
803.850	21.217369
804.051	20.912108
804.252	20.588187
804.453	20.020465
804.654	19.591936
804.855	19.163302
805.056	18.794792
805.257	18.525731
805.458	18.168267
805.659	17.907090
805.859	17.626751
806.060	17.331115
806.261	17.090735
806.462	16.828709
806.663	16.636527
806.864	16.334627
807.064	16.113550
807.265	15.782437
807.466	15.528658
807.667	15.271724
807.867	14.963776
808.068	14.653285
808.269	14.479064
808.469	14.240007
808.670	14.078052
808.870	13.910317
809.071	13.671935
809.272	13.299896
809.472	13.034703
809.673	12.789653
809.873	12.505779
810.074	12.224978
810.274	12.124924
810.475	11.862789
810.675	11.609349
810.876	11.385075
811.076	11.212210
811.276	11.023178
811.477	10.860926
811.677	10.807810
811.878	10.650174
812.078	10.492705
812.278	10.321202
812.479	10.087914
812.679	9.956768
812.879	9.766256
813.079	9.623045
813.280	9.402832
813.480	9.319200
813.680	9.179566
813.880	8.978446
814.080	8.821567
814.280	8.674197
814.480	8.630706
814.681	8.599711
814.881	8.409624
815.081	8.303525
815.281	8.264480
815.481	8.255928
815.681	8.102264
815.881	8.083376
816.081	8.066891
816.281	8.057422
816.481	8.048231
816.681	8.069520
816.880	7.980558
817.080	7.940459
817.280	7.921958
817.480	7.850153
817.680	7.732147
817.880	7.698600
818.080	7.679025
818.279	7.717813
818.479	7.678696
818.679	7.763056
818.879	7.847334
819.078	7.972487
819.278	8.071482
819.478	8.144589
819.677	8.147881
819.877	8.306859
820.077	8.533751
820.276	8.667674
820.476	8.630008
820.675	8.711267
820.875	8.703479
821.074	8.701284
821.274	8.695348
821.473	8.681400
821.673	8.620517
821.872	8.641985
822.072	8.527516
822.271	8.441987
822.471	8.477321
822.670	8.597299
822.869	8.626799
823.069	8.792599
823.268	8.797926
823.467	8.833005
823.667	8.978311
823.866	9.145686
824.065	9.241848
824.265	9.453254
824.464	9.560920
824.663	9.721888
824.862	9.907815
825.061	10.173496
825.261	10.242063
825.460	10.308883
825.659	10.505776
825.858	10.719862
826.057	11.039397
826.256	11.303279
826.455	11.528277
826.654	11.803357
826.853	11.911061
827.052	12.001389
827.251	12.217609
827.450	12.438790
827.649	12.678218
827.848	12.766547
828.047	12.837891
828.246	12.807805
828.445	12.887741
828.644	13.108176
828.843	13.251497
829.041	13.517491
829.240	13.724629
829.439	13.887974
829.638	14.111469
829.836	14.353923
830.035	14.534054
830.234	14.760465
830.433	15.036402
830.631	15.348045
830.830	15.481509
831.029	15.696471
831.227	16.031169
831.426	16.406090
831.624	16.469012
831.823	16.616581
832.022	16.952218
832.220	17.471563
832.419	18.067416
832.617	18.512693
832.816	18.914452
833.014	19.157325
833.213	19.505601
833.411	19.599097
833.609	19.728564
833.808	20.152045
834.006	20.498652
834.205	20.672791
834.403	20.794824
834.601	20.777343
834.800	20.902988
834.998	21.045058
835.196	21.271187
835.394	21.337989
835.593	21.466486
835.791	21.571982
835.989	21.733246
836.187	21.964356
836.385	22.140865
836.584	22.235002
836.782	22.465504
836.980	22.582899
837.178	22.618221
837.376	22.822117
837.574	23.014754
837.772	23.339659
837.970	23.763458
838.168	24.165609
838.366	24.499473
838.564	24.867332
838.762	25.232355
838.960	25.431888
839.158	25.856702
839.356	26.405296
839.554	26.952304
839.752	27.514439
839.949	27.759668
840.147	27.925776
840.345	28.119308
840.543	28.245839
840.741	28.274140
840.938	28.398388
841.136	28.673525
841.334	28.844694
841.532	28.864978
841.729	28.935416
841.927	29.089025
842.125	29.455484
842.322	29.622068
842.520	29.724922
842.718	30.044030
842.915	30.430683
843.113	30.783086
843.310	31.022384
843.508	31.346675
843.705	31.813091
843.903	31.980426
844.100	32.098731
844.298	32.256501
844.495	32.459158
844.693	32.562804
844.890	32.432892
845.087	32.281112
845.285	32.399243
845.482	32.548199
845.679	32.462764
845.877	32.384298
846.074	32.741633
846.271	32.996191
846.469	32.927428
846.666	33.016653
846.863	33.193015
847.060	33.445615
847.257	33.993069
847.455	34.458182
847.652	34.908362
847.849	35.470922
848.046	35.875954
848.243	35.933822
848.440	36.166298
848.637	36.636507
848.834	37.038309
849.031	37.475332
849.228	38.071000
849.425	38.572769
849.622	38.706296
849.819	38.647284
850.016	38.749047
850.213	38.904127
850.410	39.052615
850.607	39.036131
850.804	39.157846
851.001	39.357648
851.198	39.409487
851.394	39.345137
851.591	39.220369
851.788	39.333675
851.985	39.709184
852.181	40.007723
852.378	40.380365
852.575	40.672619
852.772	41.135152
852.968	41.616948
853.165	42.076783
853.362	42.699224
853.558	43.139884
853.755	43.414546
853.951	43.634916
854.148	43.712850
854.345	43.738170
854.541	43.756075
854.738	43.843247
854.934	43.919671
855.131	43.804394
855.327	43.632015
855.523	43.586178
855.720	43.722619
855.916	43.892422
856.113	44.176074
856.309	44.437702
856.505	44.686730
856.702	44.933655
856.898	45.394798
857.094	45.782803
857.291	46.329613
857.487	46.886546
857.683	47.244094
857.879	47.388560
858.076	47.712669
858.272	47.846728
858.468	47.992274
858.664	48.261919
858.860	48.435915
859.056	48.510317
859.253	48.459907
859.449	48.300000
859.645	48.106104
859.841	47.928907
860.037	47.926618
860.233	47.836244
860.429	47.944393
860.625	47.975084
860.821	47.795719
861.017	47.492558
861.213	47.358347
861.409	47.391812
861.604	47.589476
861.800	48.022699
861.996	48.300370
862.192	48.646744
862.388	48.900535
862.584	49.019980
862.779	49.424567
862.975	49.855031
863.171	50.396613
863.367	50.888812
863.562	51.244701
863.758	51.410131
863.954	51.406951
864.149	51.714873
864.345	51.758119
864.541	52.027693
864.736	52.321331
864.932	52.175217
865.127	51.950407
865.323	51.840552
865.518	51.516934
865.714	51.697925
865.910	52.049294
866.105	52.207812
866.300	52.082767
866.496	52.130610
866.691	52.171392
866.887	52.309791
867.082	52.414995
867.277	52.753641
867.473	53.008642
867.668	53.428095
867.864	53.375512
868.059	53.183373
868.254	53.340031
868.449	53.510781
868.645	53.687295
868.840	53.711659
869.035	53.399534
869.230	53.559243
869.425	53.621211
869.621	53.648524
869.816	53.825933
870.011	53.980440
870.206	54.479598
870.401	54.730190
870.596	54.925074
870.791	55.016242
870.986	55.029187
871.181	55.121687
871.376	55.024913
871.571	55.052372
871.766	55.168461
871.961	55.411186
872.156	55.704911
872.351	55.359364
872.546	55.205991
872.741	55.158557
872.936	55.345000
873.130	55.803086
873.325	56.256906
873.520	56.474592
873.715	56.605370
873.910	56.880959
874.104	56.754931
874.299	56.562187
874.494	56.659846
874.688	56.851024
874.883	57.258914
875.078	57.411829
875.272	57.174550
875.467	57.062664
875.662	57.323757
875.856	57.799037
876.051	58.081336
876.245	58.235193
876.440	58.485436
876.634	58.827282
876.829	58.758302
877.023	58.645437
877.218	58.763380
877.412	59.107178
877.607	59.690382
877.801	60.291239
877.995	60.901684
878.190	61.175641
878.384	61.534557
878.578	61.778700
878.773	61.874031
878.967	61.935382
879.161	61.817252
879.356	61.839790
879.550	61.904852
879.744	61.552062
879.938	61.135399
880.133	60.656974
880.327	60.486689
880.521	60.566856
880.715	60.703682
880.909	60.978395
881.103	61.320986
881.297	61.577041
881.491	61.766328
881.685	61.798626
881.880	61.849328
882.073	61.920711
882.267	61.928232
882.461	62.077475
882.655	61.975087
882.849	61.674437
883.043	61.299546
883.237	61.101947
883.431	61.033139
883.625	60.869632
883.819	60.796035
884.013	60.956754
884.206	61.027774
884.400	60.903468
884.594	60.595096
884.788	60.485684
884.982	60.438785
885.175	60.316393
885.369	60.561805
885.563	61.024039
885.756	61.535632
885.950	61.810461
886.144	61.993988
886.337	62.219632
886.531	62.623306
886.724	63.102310
886.918	63.282014
887.112	63.488793
887.305	63.430467
887.499	63.245176
887.692	62.968887
887.885	62.481602
888.079	62.012795
888.272	61.438891
888.466	60.958587
888.659	60.516528
888.853	60.276282
889.046	60.373312
889.239	60.558167
889.433	61.276454
889.626	61.676126
889.819	62.078465
890.013	62.542508
890.206	63.150404
890.399	63.750001
890.592	64.179041
890.785	64.377304
890.979	64.561062
891.172	64.525582
891.365	64.520604
891.558	64.377796
891.751	64.520244
891.944	64.682948
892.137	64.647609
892.330	64.689298
892.524	64.619734
892.717	64.701496
892.910	65.107368
893.103	65.373425
893.296	65.676721
893.488	66.175514
893.681	66.446843
893.874	66.875595
894.067	67.165624
894.260	67.733228
894.453	67.908907
894.646	68.185370
894.839	68.140057
895.031	67.705678
895.224	67.180765
895.417	66.779571
895.610	66.389671
895.802	66.233852
895.995	65.763976
896.188	65.127068
896.381	64.382990
896.573	63.836982
896.766	63.711987
896.958	63.963320
897.151	64.436393
897.344	64.917078
897.536	65.087533
897.729	65.061875
897.921	64.964742
898.114	64.896720
898.306	65.378942
898.499	65.816838
898.691	66.444767
898.884	66.914255
899.076	67.143360
899.269	67.396885
899.461	67.851029
899.653	68.428311
899.846	68.964960
900.038	69.363269
900.230	69.665253
900.423	69.596412
900.615	69.756090
900.807	69.897525
901.000	69.567865
901.192	69.593723
901.384	69.642549
901.576	69.289190
901.768	68.835700
901.961	68.352860
902.153	67.897847
902.345	67.533641
902.537	67.077730
902.729	66.537628
902.921	66.227779
903.113	66.100954
903.305	65.761883
903.497	65.550321
903.689	65.272625
903.881	65.070821
904.073	65.134410
904.265	65.335190
904.457	65.541413
904.649	66.078913
904.841	66.435365
905.033	66.427739
905.224	66.482975
905.416	66.544217
905.608	66.336751
905.800	66.257536
905.992	66.498115
906.183	66.614310
906.375	66.865497
906.567	67.024290
906.759	66.779433
906.950	66.585456
907.142	66.769697
907.334	67.427919
907.525	68.021084
907.717	68.320331
907.909	68.562863
908.100	68.472730
908.292	68.118505
908.483	67.755865
908.675	67.806112
908.866	68.324482
909.058	68.743621
909.249	68.528760
909.441	67.955683
909.632	67.423715
909.824	67.102319
910.015	67.135004
910.206	67.247483
910.398	67.725086
910.589	68.031696
910.780	68.018582
910.972	67.595210
911.163	67.506886
911.354	68.109549
911.546	68.485762
911.737	68.992080
911.928	69.496155
912.119	69.399648
912.310	69.342395
912.502	69.484122
912.693	69.689326
912.884	70.033144
913.075	70.136503
913.266	70.473785
913.457	70.118545
913.648	70.026492
913.839	69.923335
914.030	69.907545
914.221	70.489455
914.412	71.163015
914.603	71.351298
914.794	71.443438
914.985	71.242464
915.176	71.421537
915.367	70.873124
915.558	70.513853
915.749	70.348642
915.940	70.295100
916.130	70.235089
916.321	70.111839
916.512	70.026997
916.703	69.806389
916.893	69.775753
917.084	69.811058
917.275	69.659194
917.466	70.113263
917.656	70.557682
917.847	70.532841
918.038	70.463288
918.228	70.514459
918.419	70.219721
918.609	69.762619
918.800	69.935017
918.990	69.837705
919.181	69.754205
919.372	69.875003
919.562	69.963549
919.753	70.373975
919.943	70.835461
920.133	71.193373
920.324	71.512965
920.514	72.157522
920.705	72.934938
920.895	73.138936
921.085	73.404917
921.276	73.667140
921.466	73.952408
921.656	74.096364
921.847	74.205888
922.037	74.413887
922.227	74.393289
922.417	74.043442
922.608	73.638802
922.798	73.341968
922.988	73.093351
923.178	73.032637
923.368	73.095728
923.558	72.999728
923.748	72.955516
923.939	72.830072
924.129	72.630331
924.319	72.558518
924.509	72.875846
924.699	72.799742
924.889	72.713940
925.079	72.767396
925.269	73.023323
925.459	72.931751
925.648	72.818098
925.838	72.459418
926.028	71.990330
926.218	71.880760
926.408	71.877298
926.598	71.623974
926.788	71.780374
926.977	71.594262
927.167	71.037169
927.357	70.422860
927.547	70.353717
927.736	70.209598
927.926	70.246026
928.116	70.490819
928.305	70.520822
928.495	70.721438
928.685	70.892389
928.874	71.102996
929.064	71.153759
929.253	71.803228
929.443	72.408636
929.633	72.760087
929.822	72.864179
930.012	73.029992
930.201	73.233598
930.391	73.710006
930.580	73.860556
930.769	74.261476
930.959	74.540731
931.148	75.318899
931.338	75.952342
931.527	76.433876
931.716	76.296445
931.906	76.747880
932.095	77.396300
932.284	77.503180
932.474	77.408284
932.663	77.416732
932.852	77.217400
933.041	77.039559
933.230	76.689055
933.420	76.134267
933.609	75.238884
933.798	74.994710
933.987	74.634688
934.176	73.855517
934.365	73.823648
934.554	73.567139
934.743	72.921198
934.932	72.425420
935.121	72.109069
935.310	71.896709
935.499	72.161291
935.688	72.255585
935.877	72.184196
936.066	72.152659
936.255	72.173665
936.444	71.392201
936.633	71.145908
936.822	71.155495
937.010	70.992733
937.199	70.814175
937.388	70.474006
937.577	69.861491
937.766	70.025076
937.954	70.325068
938.143	70.458767
938.332	70.802510
938.520	71.158531
938.709	71.296098
938.898	71.461539
939.086	71.700548
939.275	72.257677
939.464	72.525750
939.652	72.969808
939.841	73.430528
940.029	73.603923
940.218	73.823745
940.406	74.054306
940.595	74.796344
940.783	74.948131
940.972	75.441965
941.160	75.854425
941.349	75.646584
941.537	75.528742
941.725	75.504968
941.914	75.059679
942.102	74.970606
942.290	74.973566
942.479	74.350960
942.667	73.629584
942.855	73.485594
943.043	73.032659
943.232	72.875403
943.420	73.101982
943.608	73.469299
943.796	73.495355
943.984	73.617339
944.172	73.793882
944.361	73.872406
944.549	74.751232
944.737	75.599225
944.925	75.776625
945.113	76.324156
945.301	76.684140
945.489	76.186619
945.677	75.723230
945.865	75.981218
946.053	76.016346
946.241	75.821121
946.429	75.477729
946.617	75.211340
946.805	74.934361
946.992	75.427245
947.180	75.675003
947.368	75.648414
947.556	76.384651
947.744	77.034740
947.931	76.850282
948.119	76.978900
948.307	77.149426
948.495	77.581332
948.682	77.360496
948.870	77.074455
949.058	76.734100
949.245	76.135573
949.433	76.090165
949.621	76.335510
949.808	76.357518
949.996	75.773035
950.183	74.976931
950.371	74.394343
950.558	73.951068
950.746	73.718380
950.933	74.078472
951.121	73.763579
951.308	73.986249
951.496	74.253995
951.683	73.876125
951.870	73.996034
952.058	74.628171
952.245	75.239053
952.433	76.065426
952.620	76.476061
952.807	76.867376
952.994	76.805072
953.182	77.304744
953.369	77.012611
953.556	76.461291
953.743	76.616968
953.931	76.702928
954.118	76.784281
954.305	76.300798
954.492	75.499434
954.679	75.102300
954.866	75.082877
955.053	75.084439
955.240	74.601024
955.427	74.591840
955.615	74.584609
955.802	74.087210
955.989	73.944858
956.175	73.877093
956.362	74.784009
956.549	75.732539
956.736	76.272943
956.923	76.248396
957.110	76.415901
957.297	76.673495
957.484	76.597769
957.671	76.892084
957.857	77.436163
958.044	77.316155
958.231	76.930899
958.418	76.761439
958.604	76.602052
958.791	76.616329
958.978	77.126514
959.165	77.348374
959.351	77.566525
959.538	77.922790
959.724	78.148323
959.911	78.468165
960.098	78.435287
960.284	78.348812
960.471	78.341482
960.657	78.541267
960.844	78.849817
961.030	78.602159
961.217	77.878174
961.403	77.630765
961.590	77.592553
961.776	77.295788
961.963	76.434667
962.149	76.017475
962.335	76.537261
962.522	76.367883
962.708	76.199045
962.894	75.673987
963.081	75.407792
963.267	75.714590
963.453	76.218003
963.639	76.409925
963.826	76.419576
964.012	77.233720
964.198	77.977310
964.384	77.380178
964.570	77.772980
964.756	77.426536
964.943	77.655779
965.129	78.055368
965.315	78.223085
965.501	78.150986
965.687	78.524105
965.873	79.432559
966.059	79.345806
966.245	79.318340
966.431	79.859764
966.617	79.740364
966.803	79.890411
966.989	80.091795
967.174	80.234715
967.360	80.315034
967.546	80.363857
967.732	80.551409
967.918	80.241538
968.104	80.042976
968.289	80.132957
968.475	79.633106
968.661	79.191710
968.847	79.712003
969.032	79.474219
969.218	79.043860
969.404	79.354563
969.589	79.278612
969.775	78.855687
969.961	78.483911
970.146	78.837497
970.332	79.290335
970.517	80.345088
970.703	80.742285
970.888	80.374664
971.074	80.899704
971.260	81.878584
971.445	81.796988
971.630	81.206758
971.816	80.378337
972.001	80.115433
972.187	79.642249
972.372	79.360815
972.557	79.008357
972.743	78.816906
972.928	78.950308
973.113	78.959662
973.299	78.556176
973.484	78.428211
973.669	78.516285
973.854	78.862212
974.040	79.213207
974.225	79.007242
974.410	78.409229
974.595	78.436848
974.780	78.639923
974.965	78.568943
975.151	78.743752
975.336	78.989796
975.521	78.941505
975.706	79.333455
975.891	80.189603
976.076	80.701276
976.261	81.092568
976.446	81.119127
976.631	81.103221
976.816	81.445605
977.001	81.283068
977.186	80.625808
977.370	80.224088
977.555	80.188648
977.740	79.963053
977.925	79.667855
978.110	79.012438
978.295	79.248594
978.479	80.123158
978.664	80.528375
978.849	80.511611
979.034	81.228957
979.218	81.630451
979.403	81.537343
979.588	81.494958
979.772	81.764566
979.957	81.838261
980.141	81.595127
980.326	81.921314
980.511	81.910400
980.695	81.427220
980.880	81.538669
981.064	81.443070
981.249	81.507069
981.433	81.382211
981.618	81.914140
981.802	82.650398
981.987	83.238299
982.171	84.047398
982.355	83.922860
982.540	83.844383
982.724	83.685776
982.908	83.499864
983.093	83.583525
983.277	83.239281
983.461	83.213069
983.646	83.329328
983.830	82.969127
984.014	82.285141
984.198	81.818329
984.382	81.620340
984.567	81.529740
984.751	81.906493
984.935	81.728192
985.119	81.053437
985.303	80.935417
985.487	81.052785
985.671	80.727342
985.855	79.995247
986.039	79.445946
986.223	79.605534
986.407	79.813117
986.591	80.021218
986.775	79.962504
986.959	80.136541
987.143	80.309531
987.327	80.580573
987.511	80.105665
987.695	79.670846
987.879	80.642308
988.062	80.867420
988.246	80.916121
988.430	81.083845
988.614	80.857360
988.797	80.537757
988.981	80.529740
989.165	80.450538
989.349	79.671860
989.532	79.877764
989.716	80.212261
989.900	79.647406
990.083	80.902000
990.267	81.765773
990.450	81.058650
990.634	80.504663
990.817	80.734571
991.001	80.418866
991.184	80.751667
991.368	81.690595
991.551	82.397855
991.735	82.762214
991.918	82.743553
992.102	81.900935
992.285	81.259611
992.469	82.137335
992.652	83.011607
992.835	83.437242
993.019	84.064388
993.202	83.485385
993.385	82.982056
993.568	81.870655
993.752	81.081564
993.935	81.447287
994.118	81.508124
994.301	81.451351
994.484	80.979843
994.668	80.577732
994.851	80.775821
995.034	80.270477
995.217	80.544466
995.400	81.116804
995.583	81.965876
995.766	82.733529
995.949	82.521021
996.132	82.312224
996.315	81.784893
996.498	81.277129
996.681	81.668610
996.864	81.392293
997.047	81.416986
997.230	82.173329
997.413	83.050108
997.596	83.331102
997.778	83.235891
997.961	83.777289
998.144	84.817259
998.327	86.037995
998.510	87.174815
998.692	86.951409
998.875	86.292629
999.058	86.627938
999.241	86.532236
999.423	85.363380
999.606	85.395942
999.789	85.377304
999.971	85.456570
1000.154	85.430505
1000.336	84.892959
1000.519	84.654109
1000.701	84.993842
1000.884	85.948716
1001.067	86.514137
1001.249	86.770280
1001.431	87.917775
1001.614	88.329546
1001.796	89.319453
1001.979	89.697627
1002.161	89.191943
1002.344	88.410705
1002.526	88.299167
1002.708	87.654682
1002.891	87.214144
1003.073	87.023022
1003.255	85.825727
1003.438	85.202131
1003.620	84.491739
1003.802	83.354742
1003.984	82.474878
1004.166	82.714538
1004.349	83.014925
1004.531	82.793151
1004.713	82.667389
1004.895	82.500206
1005.077	82.022515
1005.259	82.653734
1005.441	82.743256
1005.623	83.025518
1005.805	83.757635
1005.987	84.628279
1006.169	84.666415
1006.351	85.619332
1006.533	85.750746
1006.715	86.048460
1006.897	86.241677
1007.079	86.249846
1007.261	86.059677
1007.443	85.746262
1007.625	86.987169
1007.806	86.266684
1007.988	85.624944
1008.170	85.841829
1008.352	85.280701
1008.534	85.369660
1008.715	85.917346
1008.897	86.227617
1009.079	86.616747
1009.260	86.385731
1009.442	86.927073
1009.624	85.697800
1009.805	85.729314
1009.987	84.852604
1010.169	84.078064
1010.350	84.074044
1010.532	84.073276
1010.713	84.496887
1010.895	84.808993
1011.076	85.312868
1011.258	86.515362
1011.439	86.974423
1011.621	87.196083
1011.802	87.042727
1011.983	88.112181
1012.165	88.401964
1012.346	88.460535
1012.527	87.969127
1012.709	86.525831
1012.890	85.777341
1013.071	85.225980
1013.253	84.313824
1013.434	83.086532
1013.615	82.436060
1013.796	82.339630
1013.978	82.814567
1014.159	83.655657
1014.340	84.358263
1014.521	85.386528
1014.702	86.942222
1014.883	87.184695
1015.064	87.620125
1015.245	88.855163
1015.427	89.645941
1015.608	89.881381
1015.789	90.997090
1015.970	90.609412
1016.151	90.322377
1016.332	89.819315
1016.512	89.309169
1016.693	87.850218
1016.874	88.430199
1017.055	88.245772
1017.236	87.891387
1017.417	88.031561
1017.598	87.692737
1017.779	86.721743
1017.959	87.071391
1018.140	86.598554
1018.321	86.660705
1018.502	86.901801
1018.682	87.852082
1018.863	86.595955
1019.044	86.900920
1019.224	86.550429
1019.405	85.935130
1019.586	87.830304
1019.766	88.945390
1019.947	88.332074
1020.127	88.505063
1020.308	89.062402
1020.488	89.645723
1020.669	89.709194
1020.849	91.381520
1021.030	91.940950
1021.210	91.578317
1021.391	90.850137
1021.571	89.500225
1021.752	89.671269
1021.932	90.318467
1022.112	90.747115
1022.293	90.423906
1022.473	89.348194
1022.653	89.052424
1022.834	88.609782
1023.014	88.070640
1023.194	88.217692
1023.374	88.720587
1023.555	89.158435
1023.735	89.312203
1023.915	90.214335
1024.095	90.679603
1024.275	91.247856
1024.455	92.315659
1024.635	92.082961
1024.816	91.312766
1024.996	90.980420
1025.176	91.418471
1025.356	92.185176
1025.536	91.964078
1025.716	90.669979
1025.896	88.758498
1026.076	88.254383
1026.256	88.847858
1026.436	88.940044
1026.615	89.602723
1026.795	90.653530
1026.975	90.998826
1027.155	90.692748
1027.335	90.444175
1027.515	90.233994
1027.695	90.724615
1027.874	92.005924
1028.054	91.331980
1028.234	90.081975
1028.413	89.804128
1028.593	90.150201
1028.773	90.070123
1028.953	90.230212
1029.132	89.917237
1029.312	89.578829
1029.491	89.877691
1029.671	89.241225
1029.851	88.619932
1030.030	89.245277
1030.210	88.486381
1030.389	88.469298
1030.569	87.744309
1030.748	87.495099
1030.928	87.412108
1031.107	88.331930
1031.286	88.854136
1031.466	88.734837
1031.645	90.070933
1031.825	90.950866
1032.004	90.253118
1032.183	90.904887
1032.363	90.205806
1032.542	90.389738
1032.721	89.971490
1032.900	88.719845
1033.080	88.247137
1033.259	87.827868
1033.438	88.229434
1033.617	87.919734
1033.796	87.368596
1033.975	87.774464
1034.155	87.195545
1034.334	87.901344
1034.513	87.630592
1034.692	86.915034
1034.871	87.955705
1035.050	88.493467
1035.229	88.678447
1035.408	87.320220
1035.587	86.657450
1035.766	86.045241
1035.945	85.880230
1036.124	85.848674
1036.303	84.709791
1036.481	83.859696
1036.660	84.156068
1036.839	83.565075
1037.018	82.298164
1037.197	81.497267
1037.376	81.721137
1037.554	82.281102
1037.733	83.140647
1037.912	83.432278
1038.091	84.265397
1038.269	84.837346
1038.448	85.593992
1038.627	86.023059
1038.805	86.214920
1038.984	86.511264
1039.162	87.060477
1039.341	87.647683
1039.520	86.682683
1039.698	86.380925
1039.877	85.954693
1040.055	85.184948
1040.234	84.939383
1040.412	85.062609
1040.591	84.273759
1040.769	83.607735
1040.947	84.401597
1041.126	85.144057
1041.304	85.079293
1041.483	85.727981
1041.661	84.555358
1041.839	84.332044
1042.017	84.449256
1042.196	84.320752
1042.374	84.559881
1042.552	85.208805
1042.730	85.576960
1042.909	85.194059
1043.087	84.232050
1043.265	83.807206
1043.443	84.606476
1043.621	85.689329
1043.799	85.703060
1043.978	85.355835
1044.156	85.774747
1044.334	85.980262
1044.512	86.498301
1044.690	87.044397
1044.868	87.189270
1045.046	88.545249
1045.224	89.422893
1045.402	87.793402
1045.580	88.073908
1045.758	88.637575
1045.935	89.388549
1046.113	89.904378
1046.291	90.213239
1046.469	89.827189
1046.647	89.998262
1046.825	89.592026
1047.002	87.892374
1047.180	88.297659
1047.358	89.129769
1047.536	88.530539
1047.713	88.244962
1047.891	87.934737
1048.069	86.862682
1048.246	86.439836
1048.424	86.180815
1048.602	86.027890
1048.779	86.308885
1048.957	87.588200
1049.134	86.966800
1049.312	86.839592
1049.489	86.981157
1049.667	87.314772
1049.844	87.133179
1050.022	87.327568
1050.199	86.802940
1050.377	86.672046
1050.554	86.486213
1050.731	86.033584
1050.909	85.853590
1051.086	85.815663
1051.263	86.187967
1051.441	85.854739
1051.618	85.180407
1051.795	85.273414
1051.973	85.655199
1052.150	86.173719
1052.327	86.331075
1052.504	86.075781
1052.681	86.367309
1052.859	85.857070
1053.036	85.853887
1053.213	86.059182
1053.390	85.851960
1053.567	85.828004
1053.744	85.194319
1053.921	84.309099
1054.098	84.424460
1054.275	84.795430
1054.452	84.903748
1054.629	84.873560
1054.806	85.226476
1054.983	84.975282
1055.160	84.070365
1055.337	84.446441
1055.514	84.358314
1055.691	84.690674
1055.868	85.467453
1056.044	84.715782
1056.221	84.351878
1056.398	84.512712
1056.575	84.100825
1056.751	83.701157
1056.928	83.787545
1057.105	83.549650
1057.282	83.401069
1057.458	84.132251
1057.635	84.377790
1057.812	84.081096
1057.988	84.608682
1058.165	84.317037
1058.341	83.572350
1058.518	83.424879
1058.694	83.142833
1058.871	82.546199
1059.047	82.058198
1059.224	82.294886
1059.401	82.344296
1059.577	82.924127
1059.753	83.398643
1059.930	83.949946
1060.106	84.568283
1060.282	84.890150
1060.459	85.154451
1060.635	86.037587
1060.812	86.626894
1060.988	87.178343
1061.164	86.837495
1061.340	86.476337
1061.517	85.826127
1061.693	85.624055
1061.869	85.224288
1062.045	85.283849
1062.221	86.333546
1062.398	86.939070
1062.574	86.578874
1062.750	85.925940
1062.926	85.250552
1063.102	84.705601
1063.278	83.973485
1063.454	83.466984
1063.630	83.003235
1063.806	82.605648
1063.982	82.302710
1064.158	81.115712
1064.334	80.263871
1064.510	80.159698
1064.686	80.703660
1064.862	81.093327
1065.038	81.483348
1065.214	81.742804
1065.389	82.265905
1065.565	83.069689
1065.741	83.172280
1065.917	82.943123
1066.093	83.389166
1066.268	83.385094
1066.444	83.288800
1066.620	83.027053
1066.795	83.585710
1066.971	84.028958
1067.147	84.010649
1067.322	83.670001
1067.498	83.075548
1067.673	82.814965
1067.849	82.067630
1068.025	81.079244
1068.200	81.655778
1068.376	82.338972
1068.551	82.973151
1068.727	82.745125
1068.902	81.949629
1069.078	81.626364
1069.253	81.532815
1069.428	81.676113
1069.604	81.656963
1069.779	82.596113
1069.954	83.382753
1070.130	82.601035
1070.305	81.702148
1070.480	81.361837
1070.656	81.576094
1070.831	82.160121
1071.006	82.503082
1071.181	82.857257
1071.357	82.949335
1071.532	82.772758
1071.707	81.523240
1071.882	81.483378
1072.057	81.743550
1072.232	81.601521
1072.407	81.534618
1072.582	80.382027
1072.757	79.555461
1072.932	79.554063
1073.107	79.538172
1073.282	78.766995
1073.457	78.269934
1073.632	78.946616
1073.807	78.094859
1073.982	78.239375
1074.157	79.123456
1074.332	79.311774
1074.507	80.216628
1074.682	80.473657
1074.856	80.295976
1075.031	80.080212
1075.206	80.564030
1075.381	80.207549
1075.556	80.139448
1075.730	80.830825
1075.905	80.573324
1076.080	80.211991
1076.254	79.751799
1076.429	79.524107
1076.604	79.832264
1076.778	79.460407
1076.953	79.570301
1077.127	79.310822
1077.302	80.013403
1077.477	79.606823
1077.651	79.247787
1077.826	79.444755
1078.000	79.281311
1078.175	78.924633
1078.349	78.534364
1078.523	78.265686
1078.698	78.007487
1078.872	77.768180
1079.047	77.678402
1079.221	77.577880
1079.395	77.643715
1079.570	77.296123
1079.744	76.490228
1079.918	76.423002
1080.092	76.849418
1080.267	77.006029
1080.441	76.864610
1080.615	77.795342
1080.789	78.289672
1080.963	77.680634
1081.137	76.740322
1081.312	76.733754
1081.486	77.133787
1081.660	77.056969
1081.834	76.386730
1082.008	76.027105
1082.182	75.761918
1082.356	75.406467
1082.530	75.091852
1082.704	74.633056
1082.878	75.190375
1083.052	76.046058
1083.226	75.792570
1083.400	75.242211
1083.573	75.630882
1083.747	75.576457
1083.921	75.080849
1084.095	74.955247
1084.269	75.877541
1084.443	76.323518
1084.616	76.334946
1084.790	75.990309
1084.964	75.890074
1085.138	76.791016
1085.311	77.586351
1085.485	77.362967
1085.659	77.358818
1085.832	77.693373
1086.006	77.576072
1086.179	76.627612
1086.353	75.307342
1086.527	74.936760
1086.700	75.516087
1086.874	75.640878
1087.047	74.816502
1087.221	74.527422
1087.394	74.724806
1087.568	75.063830
1087.741	75.311987
1087.914	75.849931
1088.088	75.707347
1088.261	76.015737
1088.435	75.903309
1088.608	75.773949
1088.781	76.276300
1088.954	77.355852
1089.128	77.270034
1089.301	77.331124
1089.474	77.270043
1089.647	76.055648
1089.821	74.943563
1089.994	74.985845
1090.167	75.417125
1090.340	75.737741
1090.513	75.250572
1090.686	74.873299
1090.859	74.430156
1091.032	74.700708
1091.206	74.625620
1091.379	74.455705
1091.552	75.457072
1091.725	76.353378
1091.898	77.034880
1092.071	75.445339
1092.244	74.553625
1092.416	74.607278
1092.589	73.942612
1092.762	73.381905
1092.935	73.069681
1093.108	72.503473
1093.281	72.000369
1093.453	71.801292
1093.626	71.661598
1093.799	71.199577
1093.972	72.086764
1094.145	72.264110
1094.317	72.190073
1094.490	72.568556
1094.663	72.275459
1094.835	71.895032
1095.008	71.782955
1095.181	72.369131
1095.353	72.345579
1095.526	72.147978
1095.698	72.009660
1095.871	71.322674
1096.043	71.034095
1096.216	70.839185
1096.388	70.179128
1096.561	70.498089
1096.733	70.733424
1096.906	71.021925
1097.078	70.556077
1097.250	70.432487
1097.423	70.163893
1097.595	70.020656
1097.768	70.746401
1097.940	70.952863
1098.112	71.271495
1098.284	72.134886
1098.457	72.302579
1098.629	71.868911
1098.801	71.536211
1098.973	71.659960
1099.146	70.862897
1099.318	70.856267
1099.490	71.021742
1099.662	71.024685
1099.834	71.344524
1100.006	70.860083
1100.178	69.991811
1100.350	69.213295
1100.522	68.936917
1100.694	69.027595
1100.866	69.032242
1101.038	69.450145
1101.210	69.444631
1101.382	69.123083
1101.554	68.902981
1101.726	68.713988
1101.898	68.794411
1102.070	68.936973
1102.241	69.211848
1102.413	69.364185
1102.585	69.505205
1102.757	69.350108
1102.929	69.069920
1103.100	69.260460
1103.272	69.246088
1103.444	68.976560
1103.616	68.596651
1103.787	68.335032
1103.959	68.389822
1104.130	68.656876
1104.302	68.556092
1104.474	68.374381
1104.645	68.097067
1104.817	68.080535
1104.988	68.123218
1105.160	68.418319
1105.331	68.691232
1105.503	68.866878
1105.674	68.737624
1105.846	68.879777
1106.017	68.295033
1106.189	68.102781
1106.360	67.924523
1106.531	67.921946
1106.703	68.035069
1106.874	67.282414
1107.045	66.831750
1107.217	66.743484
1107.388	66.484474
1107.559	66.318693
1107.730	65.630595
1107.902	65.937043
1108.073	66.976688
1108.244	66.927060
1108.415	66.666428
1108.586	65.819615
1108.757	66.176894
1108.929	66.587502
1109.100	65.458499
1109.271	65.444622
1109.442	65.749338
1109.613	65.712447
1109.784	64.589085
1109.955	63.332495
1110.126	63.175536
1110.297	62.963539
1110.468	63.314097
1110.639	63.280927
1110.809	62.817112
1110.980	63.544088
1111.151	63.696860
1111.322	63.711159
1111.493	63.632189
1111.664	64.256440
1111.834	64.067073
1112.005	64.090820
1112.176	64.303364
1112.347	64.508278
1112.517	64.690236
1112.688	64.827882
1112.859	64.691823
1113.029	64.037431
1113.200	63.362997
1113.371	63.304621
1113.541	62.983582
1113.712	62.882963
1113.882	62.236051
1114.053	62.117271
1114.223	61.516433
1114.394	61.158092
1114.564	60.340858
1114.735	60.125703
1114.905	60.131970
1115.076	59.792708
1115.246	59.669327
1115.416	59.754054
1115.587	59.928697
1115.757	60.429383
1115.927	60.121034
1116.098	60.018624
1116.268	59.141195
1116.438	59.324308
1116.609	59.158209
1116.779	59.272599
1116.949	59.661185
1117.119	59.543394
1117.289	59.255340
1117.459	59.313174
1117.630	59.103367
1117.800	59.170410
1117.970	59.343244
1118.140	59.305781
1118.310	59.103957
1118.480	59.293057
1118.650	58.874340
1118.820	57.832885
1118.990	57.026776
1119.160	56.629825
1119.330	56.325214
1119.500	55.867032
1119.670	55.712174
1119.840	55.415882
1120.010	55.744345
1120.179	55.581783
1120.349	55.208849
1120.519	54.886419
1120.689	55.285797
1120.859	55.653742
1121.028	55.430764
1121.198	55.124614
1121.368	55.107445
1121.538	54.757149
1121.707	54.806025
1121.877	54.362452
1122.047	54.496346
1122.216	54.394792
1122.386	54.394632
1122.555	54.451744
1122.725	54.702712
1122.894	55.337194
1123.064	55.643409
1123.233	55.890597
1123.403	55.818071
1123.573	55.952565
1123.742	56.154587
1123.911	56.115778
1124.081	56.487716
1124.250	56.595760
1124.419	56.859257
1124.589	56.755732
1124.758	56.259813
1124.927	55.331839
1125.097	54.819354
1125.266	55.240025
1125.435	55.027144
1125.605	54.733936
1125.774	54.517645
1125.943	53.733894
1126.112	53.283434
1126.281	52.571142
1126.450	52.434440
1126.620	52.763438
1126.789	53.747822
1126.958	54.027499
1127.127	53.661697
1127.296	53.741439
1127.465	53.759642
1127.634	53.455634
1127.803	53.286505
1127.972	53.640924
1128.141	54.180769
1128.310	54.589226
1128.479	54.005002
1128.648	53.287775
1128.817	53.037689
1128.985	52.750211
1129.154	52.375809
1129.323	52.313401
1129.492	52.408352
1129.661	52.595803
1129.829	52.285333
1129.998	52.175838
1130.167	51.893798
1130.336	51.905364
1130.504	51.746522
1130.673	51.481103
1130.842	51.419974
1131.010	51.264583
1131.179	51.352135
1131.347	51.296347
1131.516	50.763948
1131.685	50.708683
1131.853	50.114908
1132.022	49.354500
1132.190	48.919009
1132.359	48.924357
1132.527	48.860284
1132.696	48.103609
1132.864	47.907585
1133.032	47.598604
1133.201	47.204514
1133.369	47.234360
1133.537	47.187605
1133.706	47.036774
1133.874	46.945162
1134.042	47.084565
1134.211	46.841827
1134.379	46.476487
1134.547	47.157033
1134.715	47.251575
1134.884	47.134588
1135.052	46.902251
1135.220	47.063501
1135.388	47.129652
1135.556	47.067071
1135.724	46.937662
1135.892	46.652107
1136.060	47.134269
1136.228	47.275548
1136.396	46.655718
1136.564	46.317090
1136.732	46.085899
1136.900	45.947991
1137.068	45.965525
1137.236	45.342024
1137.404	45.252865
1137.572	45.037819
1137.740	45.049915
1137.908	44.483779
1138.076	44.506803
1138.243	44.871394
1138.411	45.226188
1138.579	45.165522
1138.747	44.963762
1138.914	44.492382
1139.082	44.635891
1139.250	44.547792
1139.417	44.678630
1139.585	45.043753
1139.753	45.344615
1139.920	45.286315
1140.088	45.206249
1140.256	44.736889
1140.423	44.756838
1140.591	44.986492
1140.758	44.887535
1140.926	44.598667
1141.093	44.582433
1141.261	44.693931
1141.428	44.625855
1141.596	44.620838
1141.763	44.336442
1141.930	44.212332
1142.098	44.203702
1142.265	44.112718
1142.432	44.111137
1142.600	43.941788
1142.767	43.730097
1142.934	43.444840
1143.102	43.666154
1143.269	43.417582
1143.436	42.803117
1143.603	42.753092
1143.771	42.570437
1143.938	42.327867
1144.105	42.231158
1144.272	42.306213
1144.439	42.158513
1144.606	42.187144
1144.773	41.911696
1144.940	40.621002
1145.107	40.647662
1145.274	40.912459
1145.441	40.803534
1145.608	40.662541
1145.775	41.016009
1145.942	40.982947
1146.109	40.497657
1146.276	40.063336
1146.443	39.533703
1146.610	39.471150
1146.776	39.918498
1146.943	39.180983
1147.110	38.360884
1147.277	38.028922
1147.444	37.469310
1147.610	36.802328
1147.777	36.279135
1147.944	35.962676
1148.110	36.506223
1148.277	36.954986
1148.444	36.620451
1148.610	36.137363
1148.777	35.893920
1148.944	36.099486
1149.110	36.052284
1149.277	36.314363
1149.443	36.403476
1149.610	36.339893
1149.776	36.415513
1149.943	35.951427
1150.109	35.561843
1150.276	36.099008
1150.442	36.458024
1150.608	36.735781
1150.775	36.738118
1150.941	36.569514
1151.107	36.680350
1151.274	36.488459
1151.440	36.499641
1151.606	36.326380
1151.773	36.594609
1151.939	36.588376
1152.105	36.323692
1152.271	36.470021
1152.438	36.334677
1152.604	35.978599
1152.770	35.784154
1152.936	35.234750
1153.102	34.880003
1153.268	34.513033
1153.434	34.663348
1153.600	34.159082
1153.766	33.799721
1153.932	33.402564
1154.098	33.266234
1154.264	33.039131
1154.430	32.630660
1154.596	32.551406
1154.762	32.780342
1154.928	32.637899
1155.094	32.333900
1155.260	32.259942
1155.426	32.504397
1155.591	33.026912
1155.757	32.990197
1155.923	32.547105
1156.089	32.522768
1156.255	33.003145
1156.420	33.178074
1156.586	32.662377
1156.752	32.651367
1156.917	33.178435
1157.083	32.903036
1157.249	32.694952
1157.414	32.520722
1157.580	32.998688
1157.745	33.527057
1157.911	33.280817
1158.076	33.337475
1158.242	33.533138
1158.407	34.007920
1158.573	33.936594
1158.738	33.566842
1158.904	33.637244
1159.069	33.606513
1159.235	33.155851
1159.400	32.725492
1159.565	32.170040
1159.731	32.285415
1159.896	31.712214
1160.061	31.282141
1160.227	30.922139
1160.392	31.077577
1160.557	31.159446
1160.722	30.859791
1160.888	30.248415
1161.053	30.049404
1161.218	29.729189
1161.383	29.562698
1161.548	29.334903
1161.713	29.475483
1161.878	29.017310
1162.043	28.638997
1162.208	28.887022
1162.374	28.882756
1162.539	28.589892
1162.704	28.806384
1162.869	28.825852
1163.033	28.740340
1163.198	28.672277
1163.363	28.298028
1163.528	28.021108
1163.693	27.759973
1163.858	27.735705
1164.023	27.298650
1164.188	26.970385
1164.353	27.297554
1164.517	27.331169
1164.682	27.768710
1164.847	27.867936
1165.011	27.265499
1165.176	27.467676
1165.341	27.710175
1165.506	27.692638
1165.670	27.931691
1165.835	27.834386
1166.000	27.360294
1166.164	27.168802
1166.329	27.181802
1166.493	26.665953
1166.658	26.562333
1166.822	27.233328
1166.987	27.200944
1167.151	27.102007
1167.316	27.618342
1167.480	27.149532
1167.645	27.352588
1167.809	27.901590
1167.973	27.748801
1168.138	27.821128
1168.302	28.313309
1168.466	28.318121
1168.631	27.955030
1168.795	27.889660
1168.959	27.280432
1169.124	26.504021
1169.288	26.406362
1169.452	26.185274
1169.616	25.857072
1169.780	25.837385
1169.944	25.499692
1170.109	25.008294
1170.273	24.721333
1170.437	24.284470
1170.601	23.553063
1170.765	23.839436
1170.929	24.243398
1171.093	24.505715
1171.257	24.469012
1171.421	24.372888
1171.585	24.035512
1171.749	24.059269
1171.913	23.737081
1172.077	23.825827
1172.240	24.216014
1172.404	24.521210
1172.568	24.667166
1172.732	24.528868
1172.896	23.813907
1173.060	22.971184
1173.223	22.693461
1173.387	22.936495
1173.551	22.932558
1173.715	23.224815
1173.878	23.200636
1174.042	23.080900
1174.206	22.953596
1174.369	22.142621
1174.533	21.735363
1174.696	21.922625
1174.860	22.355130
1175.023	22.664683
1175.187	22.397930
1175.351	22.259556
1175.514	22.306147
1175.677	22.376151
1175.841	21.822910
1176.004	22.330601
1176.168	23.289827
1176.331	23.358705
1176.495	23.041550
1176.658	22.643844
1176.821	22.463930
1176.985	22.496938
1177.148	22.056508
1177.311	21.184065
1177.474	20.360311
1177.638	20.497371
1177.801	20.363137
1177.964	19.771494
1178.127	20.304107
1178.291	21.027533
1178.454	21.475634
1178.617	21.471198
1178.780	21.469760
1178.943	21.881288
1179.106	22.310316
1179.269	22.654012
1179.432	22.939562
1179.595	22.685353
1179.758	22.800643
1179.921	22.641649
1180.084	22.510365
1180.247	21.968383
1180.410	21.633081
1180.573	21.482829
1180.736	20.956236
1180.899	20.666676
1181.061	20.564796
1181.224	20.445064
1181.387	20.366396
1181.550	20.105708
1181.713	19.665955
1181.875	19.519686
1182.038	19.534684
1182.201	19.657935
1182.363	19.489449
1182.526	19.673102
1182.689	19.661374
1182.851	19.663760
1183.014	19.668231
1183.177	19.566215
1183.339	19.675121
1183.502	20.028202
1183.664	20.087375
1183.827	20.040705
1183.989	20.076975
1184.152	20.893012
1184.314	20.973121
1184.477	21.390211
1184.639	21.990028
1184.801	22.142396
1184.964	22.374061
1185.126	22.460821
1185.288	22.481798
1185.451	22.508356
1185.613	22.593972
1185.775	22.375954
1185.938	21.653816
1186.100	21.337698
1186.262	20.638296
1186.424	19.891284
1186.586	19.539725
1186.749	18.806748
1186.911	18.481760
1187.073	17.831225
1187.235	17.168641
1187.397	17.107796
1187.559	17.249491
1187.721	17.456223
1187.883	17.751484
1188.045	18.070902
1188.207	18.459911
1188.369	18.444549
1188.531	18.833596
1188.693	19.053528
1188.855	19.031544
1189.017	19.800472
1189.179	20.252250
1189.341	20.146868
1189.502	20.083768
1189.664	19.970803
1189.826	20.087174
1189.988	19.920633
1190.150	20.062773
1190.311	20.290386
1190.473	20.277042
1190.635	20.901627
1190.796	20.683575
1190.958	20.729516
1191.120	21.241084
1191.281	21.303026
1191.443	21.292865
1191.604	21.316583
1191.766	21.422633
1191.928	21.234118
1192.089	21.249574
1192.251	21.180699
1192.412	21.024782
1192.574	20.776460
1192.735	20.049325
1192.896	19.244187
1193.058	18.894195
1193.219	18.571535
1193.381	18.214049
1193.542	17.767576
1193.703	18.042632
1193.865	18.180066
1194.026	18.340151
1194.187	18.164978
1194.349	18.203922
1194.510	18.359476
1194.671	19.056363
1194.832	19.540166
1194.993	19.962556
1195.155	20.293233
1195.316	20.296617
1195.477	20.199922
1195.638	20.232802
1195.799	20.202526
1195.960	20.364503
1196.121	20.687261
1196.282	21.466295
1196.443	21.407383
1196.604	21.258219
1196.765	21.238875
1196.926	21.046559
1197.087	21.511245
1197.248	21.491882
1197.409	21.429347
1197.570	21.338027
1197.730	21.351789
1197.891	21.207240
1198.052	20.293905
1198.213	19.858615
1198.374	19.930773
1198.534	20.266050
1198.695	20.702908
1198.856	20.930377
1199.016	21.201916
1199.177	21.136891
1199.338	21.266888
1199.498	21.259634
1199.659	21.016650
1199.820	21.352329
1199.980	21.371743
1200.141	20.900910
1200.301	20.581236
1200.462	20.212866
1200.622	19.680927
1200.783	19.343623
1200.943	18.895045
1201.104	18.801477
1201.264	18.914982
1201.424	19.286419
1201.585	19.466789
1201.745	19.714138
1201.906	20.189779
1202.066	20.375642
1202.226	20.662733
1202.386	20.711209
1202.547	20.563550
1202.707	21.362400
1202.867	21.524212
1203.027	20.967296
1203.188	20.602441
1203.348	20.645444
1203.508	20.899905
1203.668	20.590462
1203.828	20.588657
1203.988	20.535813
1204.148	20.715059
1204.308	20.944558
1204.468	20.236287
1204.628	20.036572
1204.788	20.219716
1204.948	20.484665
1205.108	20.452557
1205.268	20.730869
1205.428	21.030909
1205.588	20.983701
1205.748	21.226461
1205.908	21.530607
1206.068	21.499340
1206.228	21.878762
1206.387	21.780211
1206.547	22.031971
1206.707	21.777951
1206.867	21.991375
1207.026	21.471172
1207.186	21.423225
1207.346	21.472650
1207.505	20.895646
1207.665	19.992195
1207.825	20.311145
1207.984	20.525827
1208.144	20.710244
1208.303	20.805358
1208.463	21.184026
1208.622	21.008816
1208.782	21.166694
1208.941	21.399064
1209.101	21.557416
1209.260	22.482200
1209.420	22.966159
1209.579	22.380505
1209.739	21.738473
1209.898	21.612415
1210.057	21.862633
1210.217	21.819978
1210.376	22.134623
1210.535	22.383668
1210.694	22.337579
1210.854	21.922702
1211.013	21.469603
1211.172	21.746047
1211.331	22.521466
1211.490	23.388688
1211.650	23.693559
1211.809	23.296401
1211.968	23.342900
1212.127	23.104458
1212.286	22.913184
1212.445	22.895606
1212.604	23.259093
1212.763	22.988701
1212.922	22.717197
1213.081	22.777734
1213.240	22.839779
1213.399	22.916530
1213.558	23.542315
1213.717	23.583140
1213.876	23.649353
1214.035	23.895001
1214.194	24.148029
1214.352	24.639356
1214.511	25.086896
1214.670	25.257656
1214.829	24.786372
1214.988	24.791096
1215.146	24.860376
1215.305	24.357150
1215.464	24.746523
1215.622	25.582431
1215.781	25.976153
1215.940	25.641296
1216.098	24.909088
1216.257	24.861848
1216.415	25.314544
1216.574	25.693756
1216.732	25.219172
1216.891	24.957233
1217.049	25.353946
1217.208	25.039832
1217.366	24.255400
1217.525	23.651145
1217.683	24.392881
1217.842	24.875395
1218.000	24.382660
1218.158	24.344551
1218.317	24.594474
1218.475	25.143080
1218.633	25.466468
1218.792	25.924289
1218.950	26.835952
1219.108	27.290319
1219.266	27.416269
1219.425	26.814289
1219.583	27.140032
1219.741	27.968462
1219.899	28.004867
1220.057	28.060646
1220.215	27.912740
1220.373	27.431045
1220.531	27.151297
1220.689	26.789980
1220.847	26.718130
1221.005	26.808957
1221.163	26.588806
1221.322	26.326587
1221.479	26.574851
1221.637	26.737382
1221.795	26.720378
1221.953	26.809828
1222.111	27.245250
1222.269	26.942487
1222.427	26.862023
1222.584	27.353406
1222.742	27.310673
1222.900	27.552751
1223.058	27.509682
1223.216	27.559740
1223.373	27.631299
1223.531	27.783065
1223.689	27.831838
1223.846	28.240075
1224.004	28.349231
1224.162	28.230475
1224.319	27.670778
1224.477	27.749943
1224.634	27.981142
1224.792	28.355531
1224.949	28.304397
1225.107	28.211957
1225.264	27.728559
1225.422	27.950476
1225.579	27.733868
1225.737	28.195108
1225.894	28.222018
1226.052	28.530547
1226.209	28.940159
1226.366	29.094349
1226.523	29.030963
1226.681	28.642383
1226.838	29.105487
1226.995	29.580927
1227.153	29.570915
1227.310	29.738596
1227.467	29.709548
1227.624	30.324199
1227.781	30.763519
1227.938	30.824139
1228.096	30.952178
1228.253	31.017684
1228.410	31.420953
1228.567	31.280042
1228.724	31.362338
1228.881	31.566413
1229.038	31.852273
1229.195	32.037825
1229.352	31.460909
1229.509	31.186360
1229.666	31.079831
1229.823	31.133610
1229.980	30.858201
1230.136	30.221395
1230.293	29.772751
1230.450	29.572622
1230.607	29.163312
1230.764	28.835495
1230.921	28.281556
1231.077	28.358183
1231.234	28.147471
1231.391	28.000893
1231.547	27.836832
1231.704	28.317598
1231.861	29.049504
1232.018	29.420148
1232.174	29.828158
1232.331	30.086520
1232.487	30.231995
1232.644	30.442875
1232.800	30.336897
1232.957	30.519654
1233.113	30.558652
1233.270	30.382508
1233.426	30.670003
1233.583	30.778277
1233.739	30.742265
1233.896	30.861981
1234.052	31.099958
1234.208	31.108465
1234.365	31.610786
1234.521	31.885651
1234.677	31.887913
1234.834	32.046017
1234.990	32.331486
1235.146	31.996303
1235.302	31.609552
1235.459	32.137549
1235.615	31.989633
1235.771	32.339231
1235.927	32.785040
1236.083	32.705486
1236.239	33.113742
1236.396	33.471490
1236.552	33.668163
1236.708	34.211585
1236.864	34.772810
1237.020	35.217023
1237.176	34.950858
1237.332	34.957627
1237.488	35.040759
1237.644	35.212063
1237.799	35.725221
1237.955	35.851670
1238.111	35.738062
1238.267	36.176009
1238.423	36.309338
1238.579	35.878724
1238.734	36.007121
1238.890	35.990314
1239.046	36.273374
1239.202	35.987704
1239.357	35.803308
1239.513	35.651368
1239.669	35.833203
1239.824	35.884876
1239.980	35.585058
1240.136	35.599023
1240.291	35.840334
1240.447	36.256646
1240.603	37.058066
1240.758	37.435537
1240.914	37.335049
1241.069	37.651461
1241.225	37.577875
1241.380	37.447338
1241.535	37.788003
1241.691	38.015024
1241.846	37.989568
1242.002	38.115401
1242.157	37.493636
1242.313	37.514206
1242.468	37.850026
1242.623	37.945482
1242.778	37.499654
1242.934	37.290434
1243.089	37.362585
1243.244	37.219355
1243.399	36.616293
1243.554	36.955142
1243.710	36.653752
1243.865	37.044026
1244.020	36.737388
1244.175	36.050715
1244.330	36.246333
1244.485	36.598696
1244.640	37.128992
1244.795	36.880245
1244.950	37.316104
1245.105	38.389928
1245.260	38.254586
1245.415	38.796248
1245.570	39.101350
1245.725	38.685864
1245.880	38.431252
1246.035	38.218662
1246.190	38.665233
1246.345	38.941995
1246.499	39.617833
1246.654	39.114151
1246.809	38.888714
1246.964	38.688516
1247.118	38.805156
1247.273	38.964529
1247.428	39.592375
1247.583	40.104784
1247.737	40.616694
1247.892	40.335812
1248.047	40.184216
1248.201	39.713607
1248.356	39.884687
1248.510	40.416342
1248.665	40.250569
1248.819	39.742407
1248.974	40.047681
1249.128	39.640588
1249.283	39.134745
1249.437	38.990097
1249.592	38.702871
1249.746	38.293076
1249.900	38.729201
1250.055	39.351749
1250.209	39.019493
1250.363	39.564864
1250.518	40.362644
1250.672	40.152253
1250.826	41.078247
1250.981	41.892535
1251.135	42.208952
1251.289	42.682028
1251.443	43.111857
1251.597	42.850747
1251.751	42.616604
1251.906	43.002814
1252.060	43.745216
1252.214	44.135743
1252.368	44.309753
1252.522	43.266418
1252.676	42.906890
1252.830	43.024492
1252.984	42.763467
1253.138	42.975176
1253.292	43.336624
1253.446	43.127874
1253.600	42.893215
1253.754	43.132726
1253.907	43.687888
1254.061	43.639542
1254.215	44.099841
1254.369	44.451237
1254.523	44.530333
1254.677	44.757669
1254.830	44.367566
1254.984	44.816132
1255.138	45.494710
1255.292	45.742718
1255.445	45.395734
1255.599	44.979844
1255.752	45.392127
1255.906	46.283747
1256.060	46.596956
1256.213	46.856364
1256.367	47.259112
1256.520	47.772265
1256.674	47.405256
1256.827	47.263465
1256.981	47.985835
1257.134	47.284953
1257.288	46.465038
1257.441	46.396154
1257.594	45.521933
1257.748	45.220344
1257.901	45.112151
1258.055	44.999610
1258.208	45.071621
1258.361	45.713907
1258.515	45.816422
1258.668	44.990873
1258.821	45.291541
1258.974	46.121302
1259.127	46.274137
1259.281	46.531213
1259.434	46.170004
1259.587	45.776022
1259.740	46.324186
1259.893	45.973812
1260.046	45.387774
1260.199	44.876470
1260.352	44.381984
1260.505	44.532699
1260.658	43.980612
1260.811	44.106376
1260.964	44.811656
1261.117	46.020953
1261.270	46.200094
1261.423	46.074496
1261.576	46.374622
1261.729	46.126498
1261.882	46.948152
1262.035	47.273652
1262.188	47.604853
1262.340	47.330707
1262.493	46.614451
1262.646	45.716899
1262.798	44.868572
1262.951	45.439335
1263.104	45.793513
1263.257	45.710936
1263.409	46.554273
1263.562	46.818567
1263.714	46.869131
1263.867	46.672358
1264.020	47.096094
1264.172	48.063420
1264.325	49.342450
1264.477	50.081778
1264.630	50.537354
1264.782	50.126047
1264.935	50.263317
1265.087	49.949378
1265.240	50.153752
1265.392	50.922653
1265.544	50.960154
1265.697	51.043136
1265.849	50.984333
1266.001	49.527249
1266.154	49.849673
1266.306	48.956387
1266.458	48.586752
1266.610	49.176767
1266.762	49.158707
1266.915	49.100429
1267.067	49.408313
1267.219	49.493987
1267.371	49.531582
1267.523	49.786369
1267.675	51.605785
1267.828	51.399974
1267.979	52.321762
1268.132	52.747546
1268.284	52.342190
1268.436	52.642314
1268.588	51.520524
1268.740	51.177868
1268.891	51.941618
1269.043	52.349975
1269.195	50.835395
1269.347	49.208133
1269.499	48.674679
1269.651	47.910381
1269.803	48.044639
1269.955	48.173050
1270.106	49.147316
1270.258	49.646266
1270.410	49.426755
1270.562	48.977614
1270.713	49.675156
1270.865	51.123674
1271.017	51.906184
1271.168	53.273339
1271.320	53.519821
1271.471	53.542458
1271.623	53.856591
1271.775	53.027237
1271.926	53.692109
1272.078	53.952589
1272.229	54.036867
1272.381	52.798584
1272.532	53.125670
1272.684	53.099766
1272.835	52.595609
1272.986	52.910178
1273.138	52.823617
1273.289	53.158038
1273.440	52.654311
1273.592	51.908843
1273.743	52.351049
1273.894	52.505056
1274.046	52.276126
1274.197	51.580125
1274.348	51.737871
1274.500	51.342350
1274.651	51.191630
1274.802	51.190680
>>>>>>>>>> END of Data <<<<<<<<<<
