Date	2025年07月03日木曜日 09時49分11秒
Spectrometers	SR401765
ダーク	使用
リファレンス	使用
積分時間[msec]	300
平均回数	1
ｽﾑｰｼﾞﾝｸﾞ	5
Electrical Dark	USE
ピクセル数	3648
計測モード	反射率
保存開始波長[nm]	598.495
保存終了波長[nm]	1274.802
保存ﾋﾟｯﾁ波長[nm]	全波長

>>>>>>>>>> Data Start <<<<<<<<<<<<
598.495	-81.459944
598.713	-81.459944
598.931	-81.459944
599.148	-81.459944
599.366	0.000000
599.584	0.000000
599.802	0.000000
600.020	0.000000
600.238	0.000000
600.455	19.443510
600.673	272.556308
600.891	35.327509
601.109	34.772285
601.326	34.101161
601.544	33.458477
601.762	33.119939
601.979	33.044318
602.197	32.881429
602.415	32.957148
602.632	32.967452
602.850	33.021032
603.067	33.080956
603.285	33.375144
603.502	33.494364
603.720	33.535761
603.938	33.803819
604.155	34.077469
604.372	34.352871
604.590	34.693569
604.807	34.735484
605.025	34.808326
605.242	34.974716
605.460	35.095497
605.677	34.938734
605.894	34.845360
606.112	34.974707
606.329	35.119861
606.546	35.336446
606.764	35.556705
606.981	35.746261
607.198	36.000873
607.415	36.308777
607.633	36.432758
607.850	36.661285
608.067	37.106849
608.284	37.519525
608.501	37.885162
608.718	37.959949
608.935	37.985368
609.153	38.014895
609.370	38.256805
609.587	38.592264
609.804	38.699577
610.021	38.915632
610.238	38.827587
610.455	38.751895
610.672	38.885813
610.889	38.998064
611.106	39.193739
611.323	39.378644
611.540	39.501765
611.756	39.537544
611.973	39.690500
612.190	39.876524
612.407	40.083859
612.624	40.440855
612.841	40.661402
613.057	40.948468
613.274	41.341379
613.491	41.582123
613.708	41.738178
613.925	41.954006
614.141	41.878467
614.358	41.796389
614.575	41.978477
614.791	42.162493
615.008	42.320574
615.225	42.601787
615.441	42.715178
615.658	42.535729
615.874	42.478150
616.091	42.599849
616.307	42.768152
616.524	43.086301
616.740	43.362665
616.957	43.405140
617.173	43.429488
617.390	43.651260
617.606	43.820942
617.823	44.003329
618.039	44.162720
618.256	44.430555
618.472	44.632256
618.688	44.878943
618.905	45.366005
619.121	45.819412
619.337	46.262215
619.554	46.658540
619.770	46.962367
619.986	47.137545
620.202	47.274400
620.419	47.663429
620.635	47.931208
620.851	48.138436
621.067	48.274080
621.283	48.264763
621.499	48.097577
621.716	48.208903
621.932	48.344850
622.148	48.350562
622.364	48.586869
622.580	48.982571
622.796	49.402713
623.012	49.741406
623.228	50.031380
623.444	50.408125
623.660	50.803033
623.876	51.120561
624.092	51.317069
624.308	51.762832
624.524	52.346615
624.740	52.619829
624.955	52.629571
625.171	52.571532
625.387	52.796826
625.603	53.132067
625.819	53.265424
626.034	53.297101
626.250	53.498814
626.466	53.658816
626.682	53.706603
626.897	53.729712
627.113	53.852654
627.329	53.784915
627.544	53.663644
627.760	53.696795
627.976	53.875817
628.191	54.186462
628.407	54.360037
628.623	54.483740
628.838	54.671058
629.054	54.689739
629.269	54.675233
629.485	54.678802
629.700	54.988018
629.916	55.479196
630.131	55.792212
630.347	55.918260
630.562	55.990983
630.777	56.280211
630.993	56.697154
631.208	57.012540
631.424	57.336186
631.639	57.733711
631.854	58.193839
632.070	58.661041
632.285	58.908527
632.500	58.989043
632.715	59.009962
632.931	59.128963
633.146	59.282724
633.361	59.418051
633.576	59.457123
633.791	59.581118
634.007	59.752089
634.222	59.858030
634.437	59.862416
634.652	59.895090
634.867	60.041029
635.082	60.355786
635.297	60.552158
635.512	60.612593
635.727	60.541695
635.942	60.614004
636.157	60.858196
636.372	61.041195
636.587	61.253959
636.802	61.352183
637.017	61.355681
637.232	61.375468
637.447	61.335037
637.662	61.189724
637.876	61.286086
638.091	61.513871
638.306	61.664314
638.521	61.529104
638.736	61.465454
638.951	61.444557
639.165	61.584885
639.380	61.861768
639.595	61.964922
639.809	62.103537
640.024	62.436503
640.239	62.503286
640.453	62.553322
640.668	62.580101
640.883	62.682426
641.097	62.871444
641.312	63.117644
641.526	63.338512
641.741	63.454387
641.955	63.924753
642.170	64.361711
642.384	64.693788
642.599	64.930540
642.813	65.203754
643.028	65.699979
643.242	66.235196
643.457	66.416831
643.671	66.621120
643.885	67.077538
644.100	67.556806
644.314	67.611063
644.528	67.610708
644.743	67.833500
644.957	68.297842
645.171	68.509402
645.386	68.226254
645.600	68.076247
645.814	68.049657
646.028	67.857108
646.242	67.418777
646.457	66.944463
646.671	66.685187
646.885	66.616335
647.099	66.562353
647.313	66.501020
647.527	66.589674
647.741	66.933904
647.955	67.069844
648.169	67.291035
648.383	67.619838
648.597	67.974036
648.811	68.561668
649.025	69.073648
649.239	69.129446
649.453	68.842553
649.667	68.643068
649.881	68.559501
650.095	68.466921
650.309	68.621556
650.523	68.830749
650.737	68.613176
650.950	68.503977
651.164	68.396033
651.378	68.284280
651.592	68.432216
651.805	68.676820
652.019	68.789982
652.233	68.706448
652.447	68.753301
652.660	68.721334
652.874	68.639463
653.088	68.950026
653.301	69.202514
653.515	69.362425
653.728	69.403290
653.942	69.324013
654.156	69.402722
654.369	69.560608
654.583	69.788066
654.796	70.037446
655.010	70.256072
655.223	70.292689
655.437	70.398724
655.650	70.649948
655.863	70.780724
656.077	70.979083
656.290	71.242487
656.504	71.262790
656.717	71.249889
656.930	71.368637
657.144	71.505631
657.357	71.584263
657.570	71.526185
657.783	71.302257
657.997	71.117091
658.210	71.073998
658.423	71.192239
658.636	71.311929
658.849	71.409404
659.063	71.396203
659.276	71.485699
659.489	71.576496
659.702	71.535099
659.915	71.561475
660.128	71.592442
660.341	71.523402
660.554	71.481160
660.767	71.328690
660.980	71.319539
661.193	71.509738
661.406	71.672536
661.619	71.587485
661.832	71.507745
662.045	71.737091
662.258	72.251366
662.471	72.657146
662.684	72.789845
662.897	72.962652
663.110	73.136698
663.322	73.359619
663.535	73.675193
663.748	74.002463
663.961	74.460111
664.174	74.855549
664.386	74.773848
664.599	74.585115
664.812	74.621696
665.024	74.822721
665.237	74.963800
665.450	75.070774
665.662	75.105856
665.875	75.052040
666.088	75.198485
666.300	75.281003
666.513	75.214348
666.725	75.190292
666.938	75.441023
667.150	75.898907
667.363	76.358503
667.575	76.693895
667.788	77.047876
668.000	77.460243
668.213	77.602204
668.425	77.524109
668.638	77.460674
668.850	77.415161
669.062	77.512725
669.275	77.464150
669.487	77.232919
669.699	76.910527
669.912	76.749386
670.124	76.759275
670.336	76.613870
670.548	76.672033
670.761	76.837626
670.973	76.980740
671.185	77.086864
671.397	77.165668
671.609	77.159777
671.822	77.174076
672.034	77.279818
672.246	77.420838
672.458	77.372775
672.670	77.216932
672.882	77.150749
673.094	77.088219
673.306	76.933814
673.518	76.864298
673.730	76.833413
673.942	76.831155
674.154	76.883579
674.366	76.857817
674.578	76.690946
674.790	76.643802
675.002	76.543260
675.214	76.371053
675.425	76.284460
675.637	76.258812
675.849	76.262156
676.061	76.315712
676.273	76.298949
676.484	76.247786
676.696	76.369595
676.908	76.679851
677.120	76.911475
677.331	77.355131
677.543	77.784927
677.755	77.874953
677.966	77.938531
678.178	78.134871
678.389	78.443982
678.601	78.673865
678.813	78.679229
679.024	78.487601
679.236	78.373799
679.447	78.392987
679.659	78.456837
679.870	78.520667
680.082	78.671774
680.293	78.690393
680.505	78.453025
680.716	78.184563
680.927	78.048265
681.139	78.143661
681.350	78.304617
681.562	78.130916
681.773	78.014613
681.984	77.953654
682.196	77.696231
682.407	77.683694
682.618	78.018296
682.829	78.209920
683.041	78.198067
683.252	78.404349
683.463	78.648175
683.674	78.847666
683.885	78.949169
684.097	78.760974
684.308	78.543463
684.519	78.465943
684.730	78.327606
684.941	78.051545
685.152	78.226804
685.363	78.737582
685.574	78.740895
685.785	78.341748
685.996	78.030117
686.207	78.170820
686.418	78.632001
686.629	79.025028
686.840	79.401222
687.051	79.612566
687.262	79.674775
687.473	79.486458
687.684	79.098962
687.894	78.955048
688.105	79.157432
688.316	79.393389
688.527	79.257032
688.738	78.747988
688.948	78.108766
689.159	77.467632
689.370	76.993088
689.580	76.850817
689.791	76.980943
690.002	77.212674
690.212	77.437731
690.423	77.508693
690.634	77.479063
690.844	77.686241
691.055	78.153836
691.266	78.705221
691.476	79.310701
691.687	79.699641
691.897	79.790766
692.108	79.705793
692.318	79.566186
692.529	79.354461
692.739	79.167928
692.949	78.942363
693.160	78.700425
693.370	78.737888
693.581	78.796684
693.791	78.781244
694.001	78.980972
694.212	79.368836
694.422	79.848980
694.632	80.266860
694.843	80.750537
695.053	81.316547
695.263	81.859702
695.473	82.349023
695.683	82.392396
695.894	82.272325
696.104	82.151598
696.314	81.806614
696.524	81.222120
696.734	80.692935
696.944	80.303320
697.154	79.930473
697.365	79.348106
697.575	78.861073
697.785	78.453826
697.995	78.134345
698.205	78.011772
698.415	78.114321
698.625	78.357617
698.834	78.499929
699.044	78.496146
699.254	78.549050
699.464	78.543531
699.674	78.622226
699.884	78.718892
700.094	78.957651
700.304	79.271967
700.513	79.304525
700.723	78.969777
700.933	78.729547
701.143	79.015900
701.353	79.347906
701.562	79.402267
701.772	79.368028
701.982	79.174796
702.191	78.779817
702.401	78.241425
702.611	77.781924
702.820	77.886543
703.030	78.254983
703.239	78.492231
703.449	78.538569
703.659	78.296292
703.868	78.057483
704.078	78.295899
704.287	78.912804
704.497	79.701483
704.706	80.213621
704.916	80.390655
705.125	80.199007
705.334	80.003934
705.544	79.747879
705.753	79.136244
705.962	78.889721
706.172	78.769373
706.381	78.362756
706.590	77.942847
706.800	77.548337
707.009	77.400308
707.218	77.312361
707.428	77.211567
707.637	77.184497
707.846	77.252176
708.055	77.471710
708.264	77.598574
708.474	77.890620
708.683	78.092001
708.892	78.118181
709.101	78.179771
709.310	78.230474
709.519	78.497882
709.728	78.668204
709.937	78.606751
710.146	78.499521
710.355	78.401823
710.564	78.277267
710.773	78.264144
710.982	78.561741
711.191	79.035431
711.400	79.600461
711.609	80.061091
711.818	80.179055
712.027	80.181376
712.235	80.365630
712.444	80.705748
712.653	80.775442
712.862	80.668802
713.071	80.371079
713.279	79.989487
713.488	79.687850
713.697	79.356497
713.906	79.028818
714.114	78.901625
714.323	78.893882
714.532	78.819836
714.740	78.529337
714.949	78.441361
715.157	78.422298
715.366	78.433704
715.575	78.563512
715.783	78.669231
715.992	78.567788
716.200	78.386539
716.409	78.238817
716.617	78.357420
716.826	78.648939
717.034	78.961083
717.242	79.081030
717.451	79.271095
717.659	79.382573
717.868	79.309911
718.076	79.082125
718.284	78.819779
718.493	78.572497
718.701	78.360299
718.909	78.127186
719.118	77.585967
719.326	77.027822
719.534	76.956692
719.742	77.073442
719.951	77.077793
720.159	77.079209
720.367	77.236097
720.575	77.526264
720.783	77.854738
720.991	78.186433
721.199	78.396741
721.408	78.621874
721.616	78.990107
721.824	79.447125
722.032	79.733548
722.240	79.914853
722.448	79.976402
722.656	79.724796
722.864	79.490144
723.072	79.498015
723.280	79.447498
723.487	79.099525
723.695	78.723636
723.903	78.302797
724.111	77.750387
724.319	77.261230
724.527	76.982474
724.735	76.712698
724.942	76.583311
725.150	76.506094
725.358	76.356507
725.566	76.434843
725.773	76.811247
725.981	77.181702
726.189	77.371745
726.396	77.395216
726.604	77.329970
726.812	77.083281
727.019	77.106013
727.227	77.412975
727.435	77.672287
727.642	77.738920
727.850	77.593972
728.057	77.195901
728.265	76.767318
728.472	76.510926
728.680	76.432842
728.887	76.392977
729.095	76.450393
729.302	76.442180
729.509	76.190811
729.717	75.789163
729.924	75.508198
730.132	75.396605
730.339	75.597117
730.546	76.014549
730.753	76.544685
730.961	76.831410
731.168	76.996876
731.375	77.383224
731.583	77.550169
731.790	77.484011
731.997	77.623501
732.204	77.794554
732.411	77.489138
732.618	76.954606
732.826	76.582161
733.033	76.199183
733.240	75.984217
733.447	75.889745
733.654	75.679681
733.861	75.592652
734.068	75.448653
734.275	75.114612
734.482	74.793467
734.689	75.006588
734.896	75.575264
735.103	75.846239
735.310	75.901624
735.517	75.780024
735.724	75.827087
735.931	75.872846
736.137	75.804480
736.344	75.920462
736.551	76.066356
736.758	75.862706
736.965	75.123431
737.171	73.936539
737.378	72.948386
737.585	72.345574
737.792	72.061557
737.998	71.823806
738.205	71.654275
738.412	71.315803
738.618	70.923426
738.825	70.572676
739.032	70.619694
739.238	70.966339
739.445	71.344641
739.651	71.729867
739.858	72.137726
740.064	72.578041
740.271	72.785185
740.477	72.712181
740.684	72.632790
740.890	72.637550
741.097	72.725834
741.303	72.756190
741.510	72.888899
741.716	73.213002
741.922	73.488745
742.129	73.367727
742.335	73.076003
742.541	72.813437
742.748	72.605967
742.954	72.539869
743.160	72.528135
743.366	72.577466
743.573	72.504714
743.779	72.387142
743.985	72.380097
744.191	72.210504
744.397	72.268420
744.604	72.394900
744.810	72.491590
745.016	72.694911
745.222	73.046577
745.428	73.346600
745.634	73.457095
745.840	73.270601
746.046	72.733382
746.252	72.053496
746.458	71.642236
746.664	71.369671
746.870	71.062068
747.076	70.913111
747.282	70.934778
747.488	70.790764
747.694	70.519537
747.900	70.169557
748.105	70.235563
748.311	70.523889
748.517	70.812041
748.723	71.169004
748.929	71.511520
749.134	71.961953
749.340	72.208951
749.546	72.038203
749.752	71.972072
749.957	71.960602
750.163	72.033274
750.369	71.921400
750.574	71.802573
750.780	71.633075
750.985	71.541372
751.191	71.314872
751.397	70.884252
751.602	70.570020
751.808	70.324250
752.013	69.854154
752.219	69.535755
752.424	69.680707
752.630	70.065243
752.835	70.432796
753.041	70.811041
753.246	70.876305
753.451	70.842824
753.657	70.705651
753.862	70.408403
754.067	70.245029
754.273	70.476349
754.478	70.694315
754.683	70.493076
754.889	69.894814
755.094	69.086616
755.299	68.541394
755.504	68.074997
755.710	67.728683
755.915	67.733585
756.120	67.886617
756.325	68.010022
756.530	67.901334
756.735	67.538347
756.940	67.108589
757.146	66.939614
757.351	67.095450
757.556	67.164709
757.761	67.126617
757.966	67.156885
758.171	66.942312
758.376	66.536672
758.581	66.074973
758.786	65.747848
758.990	65.667690
759.195	65.731312
759.400	65.664114
759.605	65.228316
759.810	64.854514
760.015	64.789632
760.220	64.451376
760.424	64.211748
760.629	63.892586
760.834	63.661518
761.039	63.485480
761.244	63.432499
761.448	63.543827
761.653	63.764993
761.858	64.210383
762.062	64.504603
762.267	64.406425
762.472	64.319437
762.676	64.090640
762.881	63.990608
763.085	63.806599
763.290	63.491063
763.494	62.855050
763.699	62.035937
763.903	61.278116
764.108	60.691726
764.312	60.115716
764.517	59.785785
764.721	59.522540
764.926	59.382438
765.130	59.399898
765.335	59.361389
765.539	59.190131
765.743	59.131565
765.948	59.160689
766.152	59.227623
766.356	58.930430
766.560	58.648892
766.765	58.369191
766.969	58.201566
767.173	58.042319
767.377	57.833695
767.582	57.704842
767.786	57.673395
767.990	57.801880
768.194	57.875332
768.398	57.867672
768.602	58.004874
768.806	58.199914
769.010	58.421398
769.215	58.485855
769.419	58.503138
769.623	58.525189
769.827	58.502597
770.031	58.368602
770.234	58.080376
770.438	57.887868
770.642	57.491124
770.846	57.079242
771.050	56.643360
771.254	56.142920
771.458	55.896539
771.662	55.706664
771.866	55.543432
772.069	55.272085
772.273	54.915900
772.477	54.455095
772.681	53.999724
772.885	53.766327
773.088	53.454845
773.292	53.132763
773.496	52.900447
773.699	52.683822
773.903	52.338710
774.107	51.736092
774.310	51.290947
774.514	50.905515
774.717	50.653282
774.921	50.326050
775.124	49.973284
775.328	49.865077
775.531	49.874406
775.735	49.816591
775.938	49.726663
776.142	49.519256
776.345	49.422932
776.549	49.568432
776.752	49.884746
776.956	50.190110
777.159	50.286946
777.362	50.165212
777.566	50.020088
777.769	49.696236
777.972	49.358633
778.176	48.969243
778.379	48.707360
778.582	48.402535
778.785	47.887508
778.989	47.232857
779.192	46.464969
779.395	45.907580
779.598	45.507146
779.801	45.035861
780.004	44.629850
780.207	44.121871
780.411	43.544384
780.614	42.996681
780.817	42.589034
781.020	42.169978
781.223	41.892909
781.426	41.813933
781.629	41.619780
781.832	41.400738
782.035	41.204061
782.238	40.989174
782.440	40.739529
782.643	40.398275
782.846	40.135407
783.049	39.843493
783.252	39.568079
783.455	39.228278
783.658	38.845296
783.860	38.536539
784.063	38.274331
784.266	37.951174
784.469	37.707246
784.671	37.535937
784.874	37.355365
785.077	37.112511
785.279	36.856173
785.482	36.652117
785.685	36.414256
785.887	36.099724
786.090	35.747747
786.293	35.212567
786.495	34.726130
786.698	34.174746
786.900	33.666581
787.103	33.346081
787.305	32.956160
787.508	32.530455
787.710	32.173237
787.913	31.837620
788.115	31.483560
788.317	31.175860
788.520	31.024530
788.722	30.700485
788.924	30.323150
789.127	30.022467
789.329	29.600220
789.531	29.294684
789.734	29.027907
789.936	28.611005
790.138	28.278681
790.340	27.919701
790.543	27.505974
790.745	27.116794
790.947	26.876981
791.149	26.751033
791.351	26.515937
791.553	26.292789
791.756	26.006310
791.958	25.789443
792.160	25.620648
792.362	25.409616
792.564	25.254221
792.766	25.099109
792.968	24.912573
793.170	24.599351
793.372	24.144406
793.574	23.773184
793.776	23.335052
793.978	22.844691
794.180	22.409963
794.381	21.922895
794.583	21.405614
794.785	20.933250
794.987	20.508537
795.189	20.147746
795.391	19.850732
795.592	19.558280
795.794	19.175562
795.996	18.947379
796.198	18.797150
796.399	18.564025
796.601	18.343394
796.803	18.073687
797.004	17.673821
797.206	17.462339
797.407	17.201241
797.609	16.870678
797.811	16.480634
798.012	16.261276
798.214	15.879212
798.415	15.498764
798.617	15.230490
798.818	15.068373
799.020	14.894441
799.221	14.738611
799.423	14.370119
799.624	13.953008
799.826	13.698584
800.027	13.576412
800.228	13.279692
800.430	13.126628
800.631	12.894722
800.832	12.638200
801.034	12.406716
801.235	12.244568
801.436	12.101584
801.637	12.060852
801.839	12.127450
802.040	12.069668
802.241	12.059414
802.442	12.070117
802.643	12.017733
802.844	12.001348
803.046	11.926387
803.247	11.656855
803.448	11.405829
803.649	11.265939
803.850	11.194904
804.051	10.985182
804.252	10.821447
804.453	10.588123
804.654	10.394431
804.855	10.189564
805.056	10.074346
805.257	9.846458
805.458	9.774924
805.659	9.730137
805.859	9.633273
806.060	9.397891
806.261	9.264823
806.462	9.212801
806.663	9.203356
806.864	9.138949
807.064	9.128227
807.265	9.063113
807.466	9.178175
807.667	9.314790
807.867	9.344789
808.068	9.323048
808.269	9.426226
808.469	9.466840
808.670	9.526047
808.870	9.466502
809.071	9.440056
809.272	9.389753
809.472	9.409286
809.673	9.408159
809.873	9.232143
810.074	9.051469
810.274	9.001994
810.475	9.039001
810.675	9.046680
810.876	9.034890
811.076	9.159770
811.276	9.305850
811.477	9.434137
811.677	9.570171
811.878	9.614358
812.078	9.690867
812.278	9.744041
812.479	9.866861
812.679	9.938641
812.879	10.114646
813.079	10.245346
813.280	10.277179
813.480	10.284639
813.680	10.209654
813.880	10.136139
814.080	10.205507
814.280	10.427201
814.480	10.857912
814.681	11.109280
814.881	11.224502
815.081	11.327684
815.281	11.506084
815.481	11.675037
815.681	11.913086
815.881	12.322222
816.081	12.725961
816.281	12.976610
816.481	13.122950
816.681	13.197470
816.880	13.333907
817.080	13.512012
817.280	13.629819
817.480	13.833713
817.680	14.047344
817.880	14.328157
818.080	14.526768
818.279	14.711137
818.479	14.881619
818.679	15.070160
818.879	15.343808
819.078	15.566997
819.278	15.831118
819.478	16.124806
819.677	16.295672
819.877	16.589830
820.077	16.766180
820.276	16.970430
820.476	17.168405
820.675	17.339595
820.875	17.479841
821.074	17.609455
821.274	17.860477
821.473	18.191420
821.673	18.396749
821.872	18.581173
822.072	18.829498
822.271	19.022860
822.471	19.285034
822.670	19.567871
822.869	19.910191
823.069	20.355476
823.268	20.695610
823.467	20.903884
823.667	20.966157
823.866	21.164950
824.065	21.484932
824.265	21.706847
824.464	21.901231
824.663	22.148888
824.862	22.420825
825.061	22.761737
825.261	22.818343
825.460	22.898403
825.659	23.128380
825.858	23.302701
826.057	23.521482
826.256	23.674132
826.455	23.803965
826.654	24.064267
826.853	24.138639
827.052	24.273023
827.251	24.532356
827.450	24.891441
827.649	25.333659
827.848	25.680984
828.047	26.085951
828.246	26.497907
828.445	26.785887
828.644	27.103051
828.843	27.356476
829.041	27.734573
829.240	28.136728
829.439	28.469859
829.638	28.796867
829.836	29.029125
830.035	29.275870
830.234	29.548443
830.433	29.855113
830.631	30.322577
830.830	30.756286
831.029	31.196737
831.227	31.666687
831.426	32.104695
831.624	32.268121
831.823	32.475922
832.022	32.503091
832.220	32.477434
832.419	32.566724
832.617	32.677695
832.816	32.735049
833.014	32.848744
833.213	33.103458
833.411	33.266894
833.609	33.448221
833.808	34.048383
834.006	34.623318
834.205	35.173401
834.403	35.815383
834.601	36.335412
834.800	36.639192
834.998	36.944214
835.196	37.085157
835.394	37.196630
835.593	37.343448
835.791	37.168105
835.989	36.610097
836.187	36.201128
836.385	36.081247
836.584	36.150417
836.782	36.367652
836.980	36.727877
837.178	37.045621
837.376	37.376316
837.574	37.676992
837.772	38.175370
837.970	38.771842
838.168	39.327324
838.366	39.776867
838.564	40.284044
838.762	40.455960
838.960	40.457430
839.158	40.461562
839.356	40.412800
839.554	40.425826
839.752	40.486882
839.949	40.406337
840.147	40.472914
840.345	40.720911
840.543	41.056000
840.741	41.252251
840.938	41.428446
841.136	41.591596
841.334	41.768985
841.532	41.991727
841.729	42.179884
841.927	42.320882
842.125	42.522659
842.322	42.709574
842.520	42.869947
842.718	43.115965
842.915	43.378716
843.113	43.637748
843.310	44.056131
843.508	44.528180
843.705	45.145841
843.903	45.710627
844.100	46.084407
844.298	46.027635
844.495	45.898401
844.693	45.803327
844.890	45.665271
845.087	45.644840
845.285	45.779988
845.482	45.750528
845.679	45.631901
845.877	45.317222
846.074	45.293815
846.271	45.660505
846.469	46.377741
846.666	47.035031
846.863	47.835608
847.060	48.566980
847.257	48.945321
847.455	49.100419
847.652	49.263126
847.849	49.389191
848.046	49.517251
848.243	49.626455
848.440	49.611034
848.637	49.606792
848.834	49.432197
849.031	49.155278
849.228	48.918449
849.425	48.643245
849.622	48.482680
849.819	48.508688
850.016	48.915536
850.213	49.246034
850.410	49.213915
850.607	49.104086
850.804	49.080589
851.001	49.466338
851.198	49.811304
851.394	50.164531
851.591	50.813901
851.788	51.562758
851.985	51.879281
852.181	51.807596
852.378	51.588695
852.575	51.446063
852.772	51.372273
852.968	51.315479
853.165	51.123627
853.362	50.985624
853.558	50.813720
853.755	50.693011
853.951	50.671038
854.148	50.967128
854.345	51.284908
854.541	51.777808
854.738	52.536263
854.934	53.209445
855.131	53.976192
855.327	54.680237
855.523	55.277170
855.720	55.660341
855.916	55.834639
856.113	55.957706
856.309	56.049670
856.505	56.078996
856.702	56.373760
856.898	56.510494
857.094	56.419889
857.291	56.286108
857.487	56.328759
857.683	56.461062
857.879	56.830964
858.076	57.307066
858.272	57.634172
858.468	57.893982
858.664	58.417394
858.860	58.765588
859.056	59.113685
859.253	59.665576
859.449	60.075071
859.645	60.548516
859.841	60.791721
860.037	60.777184
860.233	60.829834
860.429	61.178987
860.625	61.448830
860.821	61.705120
861.017	61.981886
861.213	62.093878
861.409	62.005273
861.604	61.483278
861.800	60.715396
861.996	60.387620
862.192	60.324536
862.388	60.088896
862.584	59.707734
862.779	59.555955
862.975	59.284356
863.171	58.713740
863.367	58.383647
863.562	58.179863
863.758	58.301709
863.954	58.361031
864.149	58.454352
864.345	58.569481
864.541	58.789172
864.736	58.897577
864.932	58.912676
865.127	58.800373
865.323	58.980782
865.518	59.452558
865.714	60.266972
865.910	60.944123
866.105	61.522139
866.300	61.594625
866.496	61.702051
866.691	61.962678
866.887	62.021088
867.082	62.044193
867.277	62.392087
867.473	62.792713
867.668	63.005411
867.864	62.751066
868.059	62.371568
868.254	62.230303
868.449	62.407382
868.645	62.677130
868.840	62.944085
869.035	63.475846
869.230	64.355586
869.425	64.980050
869.621	65.469541
869.816	65.403014
870.011	65.067988
870.206	64.950127
870.401	65.018734
870.596	65.323904
870.791	65.516626
870.986	65.554370
871.181	65.673963
871.376	65.194797
871.571	64.666058
871.766	64.279862
871.961	64.305771
872.156	64.616361
872.351	64.849334
872.546	64.891566
872.741	64.467263
872.936	63.981226
873.130	63.632863
873.325	63.236002
873.520	63.470840
873.715	64.041517
873.910	64.246440
874.104	63.925437
874.299	63.731858
874.494	63.878391
874.688	64.287818
874.883	64.861155
875.078	65.672670
875.272	66.326446
875.467	66.511819
875.662	66.143677
875.856	65.401725
876.051	65.157072
876.245	65.398787
876.440	65.649496
876.634	65.666380
876.829	65.491565
877.023	65.263842
877.218	65.026089
877.412	64.693987
877.607	64.482142
877.801	64.019536
877.995	63.524334
878.190	63.197079
878.384	63.289424
878.578	63.365371
878.773	63.597229
878.967	63.895596
879.161	64.262303
879.356	64.650152
879.550	64.964630
879.744	65.405812
879.938	65.844423
880.133	66.586891
880.327	67.165541
880.521	67.360713
880.715	67.760738
880.909	68.020025
881.103	68.292257
881.297	68.937958
881.491	69.085282
881.685	69.088192
881.880	68.942676
882.073	69.255603
882.267	69.252153
882.461	69.194372
882.655	69.552463
882.849	69.811897
883.043	70.014546
883.237	69.923925
883.431	69.215413
883.625	68.491266
883.819	68.384012
884.013	68.732769
884.206	69.017752
884.400	69.147945
884.594	69.380437
884.788	69.351105
884.982	69.500474
885.175	69.833621
885.369	70.123856
885.563	70.123859
885.756	70.031570
885.950	69.688068
886.144	69.440934
886.337	69.673816
886.531	69.920208
886.724	69.842326
886.918	69.917334
887.112	69.419370
887.305	68.900822
887.499	68.554645
887.692	68.581653
887.885	69.136581
888.079	69.569643
888.272	69.886161
888.466	70.010370
888.659	70.147115
888.853	70.012131
889.046	69.582362
889.239	69.349661
889.433	69.093719
889.626	68.581297
889.819	68.084802
890.013	67.259586
890.206	66.894180
890.399	66.699244
890.592	66.171690
890.785	66.024967
890.979	66.275775
891.172	66.603134
891.365	66.883169
891.558	67.252324
891.751	67.853758
891.944	68.700911
892.137	69.727718
892.330	70.500357
892.524	70.807102
892.717	71.277697
892.910	71.403422
893.103	71.310283
893.296	71.315145
893.488	71.408018
893.681	71.275350
893.874	70.967791
894.067	70.965190
894.260	71.307037
894.453	71.642490
894.646	72.050949
894.839	72.523521
895.031	73.261549
895.224	74.047384
895.417	74.511137
895.610	75.161910
895.802	75.542724
895.995	76.119392
896.188	75.622005
896.381	74.945621
896.573	74.588320
896.766	74.520750
896.958	74.423359
897.151	74.161717
897.344	74.149819
897.536	74.262835
897.729	73.654104
897.921	73.490829
898.114	73.167936
898.306	73.708526
898.499	73.737522
898.691	73.516373
898.884	73.328064
899.076	72.850204
899.269	72.468726
899.461	71.974620
899.653	71.558790
899.846	71.810337
900.038	71.618991
900.230	71.444835
900.423	71.112667
900.615	71.208840
900.807	71.351859
901.000	71.228587
901.192	71.539455
901.384	71.867530
901.576	71.724876
901.768	71.519081
901.961	71.499866
902.153	71.543926
902.345	71.927475
902.537	72.245004
902.729	72.354543
902.921	72.308679
903.113	72.248860
903.305	72.326839
903.497	72.620604
903.689	73.503078
903.881	74.256833
904.073	74.625522
904.265	75.187087
904.457	75.714626
904.649	76.067318
904.841	76.416730
905.033	76.939473
905.224	77.573756
905.416	77.714006
905.608	77.341011
905.800	76.859987
905.992	76.591344
906.183	76.745529
906.375	77.164392
906.567	77.541863
906.759	78.137746
906.950	78.537813
907.142	78.308535
907.334	77.998296
907.525	77.806572
907.717	77.757544
907.909	77.988534
908.100	78.107490
908.292	77.674349
908.483	76.881172
908.675	75.886317
908.866	75.071126
909.058	74.673706
909.249	74.477325
909.441	74.545035
909.632	74.914955
909.824	75.081158
910.015	74.547265
910.206	74.244064
910.398	74.480541
910.589	74.992186
910.780	75.569335
910.972	76.090579
911.163	76.299078
911.354	76.288731
911.546	76.384271
911.737	76.618604
911.928	76.972100
912.119	77.469611
912.310	77.914949
912.502	78.181597
912.693	78.401557
912.884	78.723700
913.075	78.607891
913.266	78.549005
913.457	79.285190
913.648	79.452716
913.839	78.769394
914.030	78.262644
914.221	78.043800
914.412	77.990094
914.603	77.825968
914.794	77.548548
914.985	77.493178
915.176	77.750533
915.367	77.996722
915.558	77.977714
915.749	78.289157
915.940	78.866336
916.130	79.263295
916.321	80.166264
916.512	80.564129
916.703	80.513843
916.893	80.392566
917.084	80.123777
917.275	79.956130
917.466	79.853548
917.656	79.594578
917.847	78.930446
918.038	77.975361
918.228	77.016333
918.419	75.786322
918.609	74.587190
918.800	73.960651
918.990	73.850832
919.181	73.812272
919.372	73.367948
919.562	72.962772
919.753	72.713834
919.943	72.981121
920.133	73.684188
920.324	74.844516
920.514	75.935583
920.705	77.000039
920.895	77.382474
921.085	77.159063
921.276	76.708827
921.466	76.599887
921.656	76.695947
921.847	76.321850
922.037	75.792020
922.227	75.589272
922.417	75.274486
922.608	75.067693
922.798	74.813117
922.988	75.222697
923.178	75.685342
923.368	76.391231
923.558	76.861596
923.748	76.923020
923.939	77.547586
924.129	77.850938
924.319	77.625652
924.509	77.924748
924.699	78.064931
924.889	78.399972
925.079	78.548791
925.269	78.676274
925.459	78.544621
925.648	78.819623
925.838	79.271719
926.028	79.426033
926.218	79.781376
926.408	80.224928
926.598	80.230590
926.788	80.212927
926.977	80.152879
927.167	80.231928
927.357	80.631164
927.547	80.927327
927.736	81.136847
927.926	80.987360
928.116	80.861499
928.305	81.008640
928.495	81.151590
928.685	80.803247
928.874	80.648949
929.064	80.506316
929.253	80.305747
929.443	80.461028
929.633	80.933278
929.822	80.647918
930.012	80.709754
930.201	81.341392
930.391	81.379802
930.580	81.746562
930.769	82.295520
930.959	82.095503
931.148	81.585615
931.338	81.222915
931.527	80.046665
931.716	78.930891
931.906	78.333341
932.095	77.601296
932.284	76.543646
932.474	76.834956
932.663	76.984846
932.852	76.754762
933.041	76.579064
933.230	76.918403
933.420	76.904117
933.609	77.299572
933.798	77.540255
933.987	77.660878
934.176	77.928250
934.365	77.985559
934.554	77.141510
934.743	76.526276
934.932	76.038909
935.121	76.228165
935.310	76.385377
935.499	76.880368
935.688	77.454225
935.877	78.358141
936.066	79.341366
936.255	79.958151
936.444	80.626101
936.633	81.120411
936.822	80.964451
937.010	81.338187
937.199	81.468780
937.388	81.867460
937.577	81.838626
937.766	81.252517
937.954	80.265089
938.143	79.734123
938.332	79.371040
938.520	78.483603
938.709	78.010792
938.898	77.989208
939.086	77.459071
939.275	76.626158
939.464	75.686592
939.652	75.166804
939.841	75.200026
940.029	75.167740
940.218	75.040383
940.406	75.251218
940.595	75.635389
940.783	75.618669
940.972	75.781113
941.160	76.250308
941.349	76.696442
941.537	76.772466
941.725	77.296850
941.914	77.336622
942.102	77.186153
942.290	77.173148
942.479	77.458333
942.667	77.937766
942.855	78.635941
943.043	78.680849
943.232	78.515029
943.420	78.786932
943.608	79.342795
943.796	79.132851
943.984	79.277673
944.172	79.047884
944.361	78.676455
944.549	77.893446
944.737	77.406537
944.925	77.068502
945.113	77.147061
945.301	77.711770
945.489	78.366607
945.677	78.499086
945.865	78.684549
946.053	78.659439
946.241	78.986930
946.429	79.421285
946.617	80.095539
946.805	80.529663
946.992	80.730528
947.180	80.818939
947.368	80.614813
947.556	80.087976
947.744	79.972438
947.931	79.983391
948.119	79.572560
948.307	79.520240
948.495	79.412888
948.682	79.209579
948.870	79.050644
949.058	79.353997
949.245	79.837843
949.433	80.085885
949.621	80.609902
949.808	80.976708
949.996	81.012239
950.183	81.800025
950.371	82.258633
950.558	82.310667
950.746	82.760322
950.933	83.055907
951.121	83.100710
951.308	83.227703
951.496	83.095784
951.683	82.856747
951.870	82.683676
952.058	82.772648
952.245	82.958280
952.433	83.397556
952.620	83.994057
952.807	83.835573
952.994	84.200266
953.182	84.060770
953.369	83.457856
953.556	83.428847
953.743	83.115760
953.931	82.667324
954.118	82.043266
954.305	81.090151
954.492	80.107480
954.679	79.303793
954.866	79.044763
955.053	78.463532
955.240	78.181142
955.427	78.393134
955.615	78.565488
955.802	78.742560
955.989	78.979587
956.175	79.171687
956.362	79.357425
956.549	79.558905
956.736	79.436794
956.923	78.729099
957.110	78.145833
957.297	77.539432
957.484	76.788802
957.671	76.419980
957.857	75.734098
958.044	75.160911
958.231	74.822755
958.418	74.640495
958.604	75.010489
958.791	76.022858
958.978	76.679482
959.165	77.101632
959.351	77.399895
959.538	77.536464
959.724	77.768061
959.911	78.842748
960.098	79.626812
960.284	80.535533
960.471	81.000192
960.657	80.988706
960.844	80.608582
961.030	81.040885
961.217	81.639050
961.403	82.478523
961.590	83.319130
961.776	83.734050
961.963	84.122431
962.149	84.630787
962.335	84.954231
962.522	85.207648
962.708	85.523539
962.894	86.041140
963.081	86.352310
963.267	86.567410
963.453	86.471000
963.639	86.270194
963.826	85.774464
964.012	84.793878
964.198	84.228661
964.384	83.377791
964.570	82.920854
964.756	82.294697
964.943	81.991693
965.129	80.938479
965.315	80.035084
965.501	79.663796
965.687	79.854189
965.873	79.620582
966.059	80.021945
966.245	80.349182
966.431	80.092278
966.617	80.547606
966.803	80.901133
966.989	80.860096
967.174	81.438192
967.360	81.373763
967.546	81.373142
967.732	81.128402
967.918	80.809108
968.104	80.834746
968.289	80.912642
968.475	81.848695
968.661	82.004766
968.847	82.178816
969.032	82.569682
969.218	82.868343
969.404	83.645441
969.589	84.165476
969.775	84.506168
969.961	84.839823
970.146	84.406548
970.332	83.935339
970.517	84.156701
970.703	84.350061
970.888	83.882244
971.074	83.235794
971.260	83.155074
971.445	83.340374
971.630	84.045461
971.816	84.416133
972.001	84.901343
972.187	84.531736
972.372	84.456034
972.557	83.969081
972.743	83.654668
972.928	84.395532
973.113	84.613769
973.299	84.838713
973.484	85.079958
973.669	84.740687
973.854	84.169821
974.040	84.207049
974.225	84.470317
974.410	85.462875
974.595	85.775016
974.780	85.807463
974.965	85.969580
975.151	86.310516
975.336	86.280885
975.521	85.952477
975.706	85.750473
975.891	85.483683
976.076	85.335283
976.261	85.686387
976.446	84.380145
976.631	83.916278
976.816	83.337950
977.001	82.746428
977.186	82.681118
977.370	82.179448
977.555	81.707217
977.740	81.590640
977.925	82.433973
978.110	82.314005
978.295	82.421640
978.479	83.348735
978.664	83.522851
978.849	84.023863
979.034	83.705305
979.218	83.188456
979.403	83.639818
979.588	83.621852
979.772	83.043626
979.957	82.250026
980.141	82.509859
980.326	82.438278
980.511	81.855478
980.695	81.692381
980.880	81.348377
981.064	81.665696
981.249	81.323323
981.433	80.318575
981.618	79.866229
981.802	79.626146
981.987	79.312179
982.171	78.859132
982.355	78.552930
982.540	78.787958
982.724	79.237805
982.908	79.848404
983.093	80.219106
983.277	81.539331
983.461	83.335150
983.646	84.530196
983.830	85.789053
984.014	87.246407
984.198	88.582935
984.382	88.983364
984.567	90.002393
984.751	90.612838
984.935	91.552354
985.119	91.110982
985.303	89.567465
985.487	87.877066
985.671	86.973701
985.855	86.054765
986.039	85.434364
986.223	84.958946
986.407	85.195193
986.591	84.167816
986.775	84.132189
986.959	83.570313
987.143	83.850807
987.327	85.588124
987.511	86.670667
987.695	87.239217
987.879	87.622637
988.062	87.929574
988.246	88.062436
988.430	88.984328
988.614	89.768497
988.797	89.196615
988.981	89.308506
989.165	90.100554
989.349	89.038895
989.532	88.692342
989.716	88.122820
989.900	87.998437
990.083	87.613584
990.267	86.526443
990.450	85.626985
990.634	84.995851
990.817	84.809976
991.001	84.617421
991.184	83.965646
991.368	84.484972
991.551	85.260350
991.735	86.022421
991.918	86.301822
992.102	86.571208
992.285	88.067215
992.469	88.649680
992.652	88.635601
992.835	89.202244
993.019	89.737440
993.202	91.266548
993.385	91.952248
993.568	91.849369
993.752	91.815937
993.935	91.522660
994.118	91.531918
994.301	90.765675
994.484	89.847054
994.668	89.849005
994.851	89.287815
995.034	88.630338
995.217	87.661271
995.400	86.986545
995.583	86.208678
995.766	86.670699
995.949	87.184095
996.132	87.564024
996.315	88.300071
996.498	88.696768
996.681	89.473257
996.864	89.955949
997.047	90.100230
997.230	89.730886
997.413	89.102319
997.596	89.159315
997.778	88.192546
997.961	87.765149
998.144	86.982585
998.327	86.011554
998.510	85.604044
998.692	85.287517
998.875	85.114832
999.058	84.878779
999.241	85.167085
999.423	86.245698
999.606	86.871851
999.789	87.410804
999.971	87.522090
1000.154	87.733756
1000.336	88.645887
1000.519	89.373096
1000.701	89.473118
1000.884	90.258659
1001.067	90.916383
1001.249	90.516153
1001.431	89.747082
1001.614	88.672478
1001.796	88.351860
1001.979	88.031044
1002.161	88.638865
1002.344	88.595050
1002.526	87.999432
1002.708	87.205666
1002.891	86.329547
1003.073	85.897909
1003.255	86.316402
1003.438	87.395697
1003.620	88.345689
1003.802	89.288227
1003.984	90.312306
1004.166	89.402618
1004.349	88.808821
1004.531	89.236542
1004.713	89.528969
1004.895	89.737730
1005.077	89.415463
1005.259	89.369338
1005.441	88.905202
1005.623	89.200892
1005.805	88.949690
1005.987	88.515844
1006.169	89.434326
1006.351	89.865173
1006.533	89.760006
1006.715	90.458814
1006.897	91.080392
1007.079	91.488250
1007.261	91.822829
1007.443	92.724027
1007.625	92.465013
1007.806	92.241228
1007.988	92.647735
1008.170	92.515316
1008.352	92.034765
1008.534	92.207528
1008.715	93.104273
1008.897	93.411355
1009.079	94.234061
1009.260	94.402200
1009.442	92.763369
1009.624	92.158026
1009.805	91.199858
1009.987	89.780625
1010.169	89.169473
1010.350	89.496413
1010.532	89.186401
1010.713	87.331769
1010.895	86.287688
1011.076	85.506080
1011.258	85.245367
1011.439	86.278164
1011.621	87.523645
1011.802	88.168954
1011.983	88.997676
1012.165	89.710057
1012.346	89.989511
1012.527	90.112971
1012.709	90.303252
1012.890	91.088866
1013.071	90.898428
1013.253	90.252624
1013.434	89.515236
1013.615	88.070910
1013.796	88.271438
1013.978	88.984600
1014.159	89.120603
1014.340	89.403912
1014.521	90.135175
1014.702	91.218471
1014.883	91.399053
1015.064	92.249761
1015.245	92.600863
1015.427	93.122481
1015.608	93.554666
1015.789	93.458207
1015.970	92.573865
1016.151	92.202338
1016.332	91.351938
1016.512	90.475084
1016.693	90.058657
1016.874	89.658174
1017.055	89.079994
1017.236	89.488606
1017.417	89.817264
1017.598	89.663288
1017.779	89.890391
1017.959	90.535212
1018.140	90.518528
1018.321	91.322830
1018.502	91.368767
1018.682	90.828877
1018.863	90.414022
1019.044	90.376588
1019.224	90.258605
1019.405	90.702329
1019.586	90.675355
1019.766	90.066307
1019.947	89.443822
1020.127	89.004058
1020.308	88.905308
1020.488	89.843810
1020.669	90.994534
1020.849	91.555741
1021.030	92.062184
1021.210	92.514688
1021.391	91.509600
1021.571	92.265043
1021.752	93.307874
1021.932	93.485908
1022.112	93.741453
1022.293	93.887906
1022.473	92.940133
1022.653	92.289463
1022.834	92.782426
1023.014	92.153046
1023.194	90.920771
1023.374	91.478389
1023.555	91.636260
1023.735	91.543275
1023.915	92.396750
1024.095	92.172833
1024.275	91.889989
1024.455	92.762328
1024.635	93.023123
1024.816	92.689223
1024.996	93.329763
1025.176	94.064369
1025.356	93.230703
1025.536	92.968696
1025.716	92.496811
1025.896	91.357794
1026.076	91.559395
1026.256	91.865108
1026.436	91.910649
1026.615	91.766475
1026.795	90.955922
1026.975	90.992314
1027.155	91.569134
1027.335	91.736505
1027.515	91.072376
1027.695	90.965944
1027.874	92.608916
1028.054	92.349405
1028.234	92.441812
1028.413	92.019677
1028.593	93.195945
1028.773	94.227694
1028.953	93.837508
1029.132	92.406999
1029.312	93.177693
1029.491	94.492566
1029.671	95.853383
1029.851	94.768679
1030.030	96.230947
1030.210	96.583584
1030.389	97.060485
1030.569	96.257499
1030.748	95.946420
1030.928	95.641535
1031.107	95.805962
1031.286	94.731892
1031.466	94.000664
1031.645	92.457880
1031.825	92.590214
1032.004	91.744295
1032.183	91.520697
1032.363	92.048573
1032.542	92.045342
1032.721	91.632088
1032.900	90.897150
1033.080	90.809287
1033.259	90.471835
1033.438	90.340658
1033.617	90.961641
1033.796	90.676057
1033.975	90.615663
1034.155	90.075745
1034.334	89.216150
1034.513	90.060875
1034.692	91.045061
1034.871	91.371718
1035.050	91.030300
1035.229	91.642453
1035.408	91.220142
1035.587	90.774129
1035.766	91.068813
1035.945	91.009845
1036.124	90.244344
1036.303	89.359488
1036.481	87.972193
1036.660	87.483357
1036.839	88.013518
1037.018	88.152025
1037.197	87.331111
1037.376	87.344979
1037.554	88.056717
1037.733	87.301357
1037.912	86.885401
1038.091	87.603127
1038.269	88.402339
1038.448	87.784653
1038.627	88.024659
1038.805	87.708425
1038.984	88.113932
1039.162	87.619437
1039.341	87.243867
1039.520	86.942008
1039.698	88.116388
1039.877	88.714027
1040.055	87.790040
1040.234	86.638273
1040.412	86.420081
1040.591	85.627669
1040.769	86.088891
1040.947	86.200797
1041.126	87.187157
1041.304	87.761643
1041.483	86.443223
1041.661	85.475130
1041.839	85.084862
1042.017	84.279968
1042.196	84.519992
1042.374	84.979139
1042.552	84.902577
1042.730	85.347405
1042.909	85.452064
1043.087	85.826700
1043.265	85.660163
1043.443	86.856826
1043.621	87.302529
1043.799	87.153098
1043.978	88.016891
1044.156	88.252908
1044.334	88.920242
1044.512	90.008332
1044.690	88.833714
1044.868	89.153002
1045.046	89.204380
1045.224	89.583640
1045.402	89.766139
1045.580	90.019691
1045.758	90.625642
1045.935	91.298753
1046.113	91.289512
1046.291	90.206854
1046.469	88.404318
1046.647	88.319060
1046.825	87.498573
1047.002	87.094672
1047.180	86.456107
1047.358	85.752552
1047.536	84.760659
1047.713	84.623425
1047.891	84.473731
1048.069	84.216630
1048.246	84.698233
1048.424	84.874394
1048.602	85.224328
1048.779	86.246386
1048.957	86.188784
1049.134	86.894886
1049.312	87.939524
1049.489	88.401731
1049.667	88.334727
1049.844	88.994848
1050.022	89.550944
1050.199	89.739284
1050.377	89.611236
1050.554	89.362014
1050.731	88.806745
1050.909	88.481868
1051.086	87.075347
1051.263	85.900156
1051.441	86.292952
1051.618	86.106606
1051.795	85.345945
1051.973	84.864453
1052.150	85.056529
1052.327	86.234547
1052.504	86.659286
1052.681	86.909647
1052.859	87.354958
1053.036	88.581887
1053.213	89.189273
1053.390	89.031688
1053.567	89.148152
1053.744	89.175107
1053.921	89.041738
1054.098	88.716388
1054.275	88.692824
1054.452	88.672577
1054.629	88.177911
1054.806	87.667858
1054.983	87.401020
1055.160	87.722491
1055.337	87.626644
1055.514	86.734516
1055.691	85.991420
1055.868	86.425748
1056.044	86.621464
1056.221	86.042814
1056.398	86.095695
1056.575	86.711318
1056.751	88.041859
1056.928	88.478322
1057.105	88.564779
1057.282	89.364448
1057.458	91.020236
1057.635	92.642921
1057.812	92.610505
1057.988	91.507902
1058.165	91.785280
1058.341	92.049837
1058.518	91.440408
1058.694	90.716918
1058.871	90.661063
1059.047	89.910746
1059.224	88.425131
1059.401	87.267646
1059.577	86.857685
1059.753	86.997388
1059.930	87.890962
1060.106	87.651083
1060.282	87.213831
1060.459	87.393720
1060.635	87.296527
1060.812	86.868206
1060.988	87.277847
1061.164	88.157627
1061.340	88.770772
1061.517	88.251347
1061.693	88.312849
1061.869	88.181810
1062.045	87.889918
1062.221	88.495220
1062.398	88.671976
1062.574	88.497452
1062.750	88.467375
1062.926	87.746721
1063.102	87.217458
1063.278	86.426872
1063.454	85.780873
1063.630	85.119751
1063.806	85.082308
1063.982	85.090515
1064.158	83.657053
1064.334	83.544585
1064.510	84.005328
1064.686	83.913944
1064.862	84.150729
1065.038	84.415200
1065.214	84.471840
1065.389	85.308073
1065.565	85.523729
1065.741	86.199482
1065.917	87.484525
1066.093	88.504470
1066.268	88.432499
1066.444	88.280710
1066.620	88.022961
1066.795	88.356050
1066.971	88.743851
1067.147	88.792450
1067.322	88.091181
1067.498	88.396087
1067.673	87.959035
1067.849	87.284596
1068.025	87.112507
1068.200	86.764432
1068.376	86.435906
1068.551	86.431539
1068.727	85.755643
1068.902	85.132415
1069.078	85.426857
1069.253	85.923515
1069.428	85.814813
1069.604	85.800718
1069.779	85.916712
1069.954	85.692150
1070.130	85.878087
1070.305	85.807868
1070.480	86.267266
1070.656	86.906550
1070.831	86.852922
1071.006	87.052405
1071.181	87.249818
1071.357	87.423721
1071.532	87.050706
1071.707	86.726474
1071.882	87.695239
1072.057	86.778040
1072.232	86.409126
1072.407	85.502497
1072.582	84.752880
1072.757	84.899746
1072.932	84.006066
1073.107	83.801950
1073.282	83.654104
1073.457	84.021791
1073.632	84.208556
1073.807	82.507974
1073.982	82.696678
1074.157	82.549608
1074.332	82.535480
1074.507	82.242054
1074.682	81.198303
1074.856	80.884648
1075.031	80.414235
1075.206	79.718696
1075.381	79.519023
1075.556	78.508993
1075.730	79.151889
1075.905	79.559434
1076.080	79.968193
1076.254	80.103732
1076.429	80.476920
1076.604	81.598543
1076.778	82.036839
1076.953	81.506157
1077.127	81.691581
1077.302	80.610809
1077.477	80.477370
1077.651	79.839654
1077.826	79.023814
1078.000	78.846885
1078.175	78.882963
1078.349	79.129034
1078.523	78.585486
1078.698	78.141350
1078.872	78.762179
1079.047	79.560741
1079.221	80.641006
1079.395	81.741440
1079.570	82.455371
1079.744	82.763747
1079.918	82.286855
1080.092	82.011508
1080.267	82.063211
1080.441	81.792959
1080.615	82.171890
1080.789	82.148932
1080.963	81.193994
1081.137	80.210338
1081.312	79.196958
1081.486	78.645703
1081.660	79.121769
1081.834	79.825247
1082.008	80.172955
1082.182	80.020277
1082.356	80.364956
1082.530	81.305730
1082.704	81.625223
1082.878	81.739220
1083.052	82.514124
1083.226	82.797995
1083.400	82.659036
1083.573	81.855224
1083.747	81.164999
1083.921	80.981703
1084.095	80.355447
1084.269	79.852499
1084.443	78.752437
1084.616	78.453649
1084.790	78.999642
1084.964	78.622405
1085.138	78.490108
1085.311	79.336488
1085.485	80.094522
1085.659	80.172456
1085.832	80.533703
1086.006	80.464040
1086.179	80.767149
1086.353	80.794218
1086.527	81.192894
1086.700	80.421161
1086.874	80.307057
1087.047	80.562165
1087.221	79.777950
1087.394	79.849484
1087.568	80.076835
1087.741	79.969744
1087.914	80.283416
1088.088	80.037837
1088.261	79.804895
1088.435	78.733177
1088.608	78.156469
1088.781	77.335595
1088.954	76.514514
1089.128	76.547650
1089.301	76.528724
1089.474	76.453514
1089.647	76.482839
1089.821	76.328014
1089.994	76.181448
1090.167	76.260402
1090.340	76.055574
1090.513	75.640402
1090.686	76.008028
1090.859	76.742092
1091.032	76.327227
1091.206	75.535765
1091.379	74.430737
1091.552	73.760748
1091.725	73.761947
1091.898	73.426015
1092.071	73.412543
1092.244	73.921581
1092.416	74.928655
1092.589	75.090284
1092.762	73.463988
1092.935	72.718178
1093.108	72.732924
1093.281	73.133544
1093.453	73.458804
1093.626	73.290176
1093.799	73.360755
1093.972	73.530046
1094.145	73.444314
1094.317	73.659465
1094.490	73.919681
1094.663	75.345835
1094.835	76.274148
1095.008	77.150360
1095.181	78.121308
1095.353	77.812303
1095.526	77.862673
1095.698	77.542435
1095.871	77.162203
1096.043	77.230331
1096.216	76.476510
1096.388	76.158467
1096.561	76.405499
1096.733	76.631448
1096.906	75.836680
1097.078	74.728892
1097.250	74.932104
1097.423	74.920635
1097.595	75.370150
1097.768	75.310314
1097.940	75.400155
1098.112	75.551443
1098.284	75.122356
1098.457	74.033245
1098.629	73.263671
1098.801	73.142777
1098.973	73.328706
1099.146	73.040739
1099.318	72.957617
1099.490	72.728615
1099.662	72.910943
1099.834	71.926408
1100.006	71.635658
1100.178	72.073072
1100.350	72.221326
1100.522	72.348516
1100.694	71.710334
1100.866	71.401274
1101.038	71.485185
1101.210	71.661794
1101.382	71.858805
1101.554	71.868707
1101.726	72.873723
1101.898	73.241372
1102.070	73.214355
1102.241	73.593300
1102.413	73.878016
1102.585	73.931079
1102.757	73.801166
1102.929	73.728529
1103.100	73.796667
1103.272	73.753423
1103.444	73.121902
1103.616	71.698139
1103.787	71.313911
1103.959	71.330402
1104.130	70.830969
1104.302	69.806521
1104.474	69.361855
1104.645	69.249040
1104.817	69.104626
1104.988	68.804122
1105.160	68.303976
1105.331	68.384862
1105.503	68.805143
1105.674	68.220180
1105.846	67.631996
1106.017	68.186709
1106.189	69.139806
1106.360	69.765977
1106.531	70.316071
1106.703	69.454447
1106.874	68.673898
1107.045	68.399804
1107.217	68.168854
1107.388	68.382985
1107.559	68.407650
1107.730	68.349617
1107.902	67.715776
1108.073	67.561766
1108.244	67.493025
1108.415	66.868157
1108.586	66.935931
1108.757	66.787467
1108.929	66.738258
1109.100	66.454492
1109.271	65.936371
1109.442	65.669718
1109.613	65.583203
1109.784	65.785934
1109.955	65.713229
1110.126	65.391910
1110.297	65.283777
1110.468	65.189668
1110.639	65.248700
1110.809	65.410679
1110.980	65.428460
1111.151	65.297547
1111.322	65.677701
1111.493	64.981796
1111.664	64.508153
1111.834	64.236403
1112.005	64.390179
1112.176	65.083336
1112.347	65.478409
1112.517	65.915818
1112.688	65.939759
1112.859	65.791176
1113.029	66.679795
1113.200	67.399680
1113.371	68.995919
1113.541	69.077374
1113.712	69.237700
1113.882	69.474506
1114.053	69.419327
1114.223	69.846864
1114.394	69.398161
1114.564	68.688781
1114.735	69.047366
1114.905	68.243395
1115.076	67.799604
1115.246	67.571637
1115.416	67.838881
1115.587	67.574686
1115.757	66.879849
1115.927	66.547526
1116.098	65.805879
1116.268	65.727567
1116.438	66.248072
1116.609	65.865799
1116.779	65.976926
1116.949	65.470794
1117.119	64.765532
1117.289	64.253710
1117.459	63.906155
1117.630	63.844875
1117.800	63.814106
1117.970	63.799385
1118.140	62.977650
1118.310	62.680012
1118.480	62.819715
1118.650	61.824570
1118.820	61.373153
1118.990	61.151628
1119.160	60.757920
1119.330	60.930346
1119.500	60.849649
1119.670	60.256022
1119.840	59.995430
1120.010	60.282029
1120.179	60.130922
1120.349	59.763104
1120.519	59.981333
1120.689	59.902919
1120.859	59.367967
1121.028	59.382616
1121.198	58.985885
1121.368	59.181216
1121.538	59.464352
1121.707	59.198792
1121.877	59.483444
1122.047	59.352330
1122.216	59.271851
1122.386	59.972547
1122.555	60.292712
1122.725	60.681375
1122.894	60.700809
1123.064	60.629539
1123.233	60.240150
1123.403	59.772384
1123.573	59.960366
1123.742	59.410186
1123.911	59.429052
1124.081	59.301062
1124.250	58.311549
1124.419	57.606589
1124.589	57.183147
1124.758	56.904424
1124.927	57.084203
1125.097	57.055768
1125.266	56.590727
1125.435	56.183154
1125.605	56.779880
1125.774	56.949501
1125.943	56.846728
1126.112	57.580605
1126.281	58.385618
1126.450	58.602332
1126.620	58.429213
1126.789	57.944256
1126.958	57.611819
1127.127	58.287967
1127.296	58.756592
1127.465	58.732188
1127.634	58.291421
1127.803	58.519623
1127.972	57.956383
1128.141	57.515787
1128.310	57.523660
1128.479	57.728895
1128.648	58.217760
1128.817	58.092790
1128.985	57.264798
1129.154	56.946501
1129.323	56.659281
1129.492	56.206858
1129.661	55.552259
1129.829	55.042066
1129.998	54.821327
1130.167	54.629699
1130.336	54.410091
1130.504	54.145857
1130.673	54.367985
1130.842	54.638565
1131.010	54.062814
1131.179	53.508741
1131.347	53.574588
1131.516	53.295269
1131.685	53.472265
1131.853	53.176761
1132.022	53.014390
1132.190	53.193533
1132.359	53.257178
1132.527	52.801832
1132.696	52.189582
1132.864	52.288706
1133.032	52.169234
1133.201	51.709964
1133.369	51.561458
1133.537	51.626735
1133.706	52.085268
1133.874	51.943346
1134.042	51.417002
1134.211	50.700930
1134.379	50.727748
1134.547	51.539522
1134.715	51.960408
1134.884	52.385642
1135.052	52.909715
1135.220	53.128944
1135.388	52.889888
1135.556	52.768686
1135.724	53.085868
1135.892	53.546938
1136.060	53.688986
1136.228	53.751250
1136.396	52.899157
1136.564	51.968468
1136.732	51.172152
1136.900	50.783721
1137.068	50.427172
1137.236	50.279353
1137.404	49.569637
1137.572	48.735314
1137.740	48.344404
1137.908	48.461951
1138.076	48.299654
1138.243	48.445903
1138.411	48.505148
1138.579	48.734706
1138.747	48.754597
1138.914	49.043738
1139.082	49.276201
1139.250	49.494316
1139.417	49.417466
1139.585	48.676822
1139.753	48.238814
1139.920	48.046458
1140.088	47.816179
1140.256	47.940760
1140.423	48.096993
1140.591	47.538436
1140.758	47.284317
1140.926	47.214886
1141.093	47.158548
1141.261	47.134801
1141.428	48.030503
1141.596	48.385328
1141.763	48.469562
1141.930	48.610896
1142.098	48.354567
1142.265	47.845573
1142.432	48.277885
1142.600	48.057972
1142.767	47.442195
1142.934	47.517293
1143.102	47.697025
1143.269	46.855546
1143.436	45.805320
1143.603	45.280217
1143.771	45.260856
1143.938	45.480072
1144.105	45.790813
1144.272	46.034420
1144.439	45.963043
1144.606	46.000660
1144.773	45.659885
1144.940	45.123508
1145.107	45.442302
1145.274	46.163885
1145.441	46.808999
1145.608	46.941547
1145.775	46.670036
1145.942	46.322549
1146.109	45.990673
1146.276	46.295927
1146.443	46.384746
1146.610	46.065063
1146.776	46.789261
1146.943	46.638728
1147.110	46.310824
1147.277	45.625807
1147.444	45.051244
1147.610	45.493431
1147.777	45.629613
1147.944	45.551130
1148.110	45.382992
1148.277	44.857653
1148.444	44.529742
1148.610	43.929698
1148.777	43.761331
1148.944	43.442550
1149.110	43.672034
1149.277	43.525143
1149.443	42.867062
1149.610	42.536322
1149.776	41.875351
1149.943	41.246151
1150.109	41.403223
1150.276	41.889297
1150.442	41.969737
1150.608	41.755874
1150.775	42.052361
1150.941	41.603584
1151.107	41.395524
1151.274	41.158174
1151.440	40.760374
1151.606	41.107995
1151.773	41.497214
1151.939	41.564056
1152.105	41.546262
1152.271	41.160239
1152.438	41.032584
1152.604	40.548058
1152.770	40.482618
1152.936	40.346155
1153.102	40.084462
1153.268	39.868413
1153.434	39.424911
1153.600	38.901839
1153.766	38.381567
1153.932	37.233981
1154.098	36.622614
1154.264	36.044187
1154.430	35.915271
1154.596	35.794043
1154.762	35.953609
1154.928	36.071161
1155.094	35.994135
1155.260	35.608865
1155.426	35.789899
1155.591	36.261123
1155.757	37.076559
1155.923	38.070712
1156.089	39.094240
1156.255	39.628656
1156.420	40.250604
1156.586	40.467034
1156.752	40.732182
1156.917	41.019694
1157.083	41.142337
1157.249	40.500992
1157.414	39.681905
1157.580	39.431911
1157.745	39.046997
1157.911	38.262550
1158.076	37.437796
1158.242	36.756131
1158.407	36.554614
1158.573	36.310040
1158.738	36.046877
1158.904	36.381667
1159.069	36.750455
1159.235	36.897246
1159.400	37.040164
1159.565	36.525337
1159.731	36.570613
1159.896	36.909980
1160.061	36.828928
1160.227	36.725070
1160.392	36.516637
1160.557	36.600212
1160.722	36.605960
1160.888	36.778187
1161.053	37.381811
1161.218	37.033071
1161.383	37.216268
1161.548	37.346903
1161.713	36.855833
1161.878	36.506439
1162.043	36.061417
1162.208	36.070605
1162.374	35.886527
1162.539	35.326606
1162.704	34.775158
1162.869	33.993696
1163.033	33.952689
1163.198	34.120221
1163.363	33.560642
1163.528	33.117003
1163.693	32.990473
1163.858	33.000658
1164.023	33.138630
1164.188	33.485667
1164.353	33.628058
1164.517	33.590388
1164.682	33.730776
1164.847	33.444913
1165.011	32.487633
1165.176	32.625748
1165.341	33.207196
1165.506	33.264877
1165.670	33.661027
1165.835	33.333188
1166.000	32.717366
1166.164	32.538714
1166.329	32.685654
1166.493	32.569612
1166.658	32.539754
1166.822	33.296277
1166.987	33.399973
1167.151	33.529320
1167.316	33.779851
1167.480	33.505169
1167.645	33.454601
1167.809	33.489906
1167.973	33.375940
1168.138	33.793084
1168.302	34.098486
1168.466	33.952287
1168.631	33.416931
1168.795	33.134437
1168.959	32.801182
1169.124	32.553348
1169.288	32.443663
1169.452	32.373481
1169.616	32.287119
1169.780	32.626162
1169.944	31.912108
1170.109	31.211161
1170.273	31.387950
1170.437	31.470197
1170.601	31.383146
1170.765	30.770359
1170.929	30.408564
1171.093	30.284035
1171.257	30.253060
1171.421	30.131688
1171.585	29.687034
1171.749	30.201426
1171.913	30.682878
1172.077	30.554573
1172.240	30.630231
1172.404	30.854601
1172.568	31.892156
1172.732	32.217134
1172.896	31.716714
1173.060	31.511075
1173.223	31.795720
1173.387	32.192233
1173.551	32.314895
1173.715	32.240046
1173.878	32.548497
1174.042	32.679544
1174.206	32.274754
1174.369	31.684898
1174.533	31.614875
1174.696	31.679407
1174.860	31.314186
1175.023	31.245884
1175.187	31.125973
1175.351	30.432956
1175.514	30.410360
1175.677	30.307017
1175.841	29.802544
1176.004	29.890813
1176.168	30.398587
1176.331	30.491202
1176.495	30.574757
1176.658	31.379691
1176.821	31.506803
1176.985	31.319454
1177.148	31.665649
1177.311	31.633100
1177.474	30.988402
1177.638	31.011672
1177.801	31.368619
1177.964	31.077766
1178.127	31.075889
1178.291	31.403280
1178.454	31.114317
1178.617	30.566879
1178.780	30.698906
1178.943	30.352553
1179.106	30.023338
1179.269	30.128767
1179.432	30.499982
1179.595	30.125263
1179.758	29.818108
1179.921	29.715760
1180.084	29.703605
1180.247	29.627032
1180.410	29.843809
1180.573	29.494398
1180.736	29.308745
1180.899	29.214041
1181.061	29.063599
1181.224	28.478559
1181.387	28.328284
1181.550	28.106797
1181.713	27.814855
1181.875	27.602964
1182.038	27.051023
1182.201	26.641526
1182.363	26.546864
1182.526	27.013820
1182.689	27.241884
1182.851	27.524961
1183.014	27.546677
1183.177	27.772885
1183.339	28.220880
1183.502	28.849495
1183.664	29.240086
1183.827	29.514421
1183.989	29.601787
1184.152	29.721716
1184.314	29.221797
1184.477	29.287173
1184.639	29.500683
1184.801	29.840900
1184.964	29.850388
1185.126	29.657586
1185.288	29.365156
1185.451	29.174895
1185.613	29.361450
1185.775	29.661945
1185.938	29.715944
1186.100	29.865542
1186.262	29.434026
1186.424	29.182209
1186.586	29.202896
1186.749	29.038798
1186.911	28.967966
1187.073	28.702735
1187.235	28.748405
1187.397	28.835381
1187.559	28.909424
1187.721	28.919570
1187.883	29.152661
1188.045	29.504831
1188.207	29.730372
1188.369	29.985657
1188.531	29.848567
1188.693	30.037651
1188.855	29.936010
1189.017	29.862208
1189.179	30.167889
1189.341	30.210895
1189.502	30.363832
1189.664	29.897876
1189.826	30.054725
1189.988	30.152405
1190.150	29.498518
1190.311	29.813219
1190.473	29.557039
1190.635	29.871194
1190.796	29.395701
1190.958	28.638340
1191.120	28.364400
1191.281	28.203698
1191.443	28.484264
1191.604	28.154616
1191.766	28.062324
1191.928	28.490013
1192.089	28.388173
1192.251	28.621159
1192.412	28.474383
1192.574	28.740401
1192.735	28.649019
1192.896	28.547111
1193.058	28.533040
1193.219	28.202365
1193.381	28.221194
1193.542	28.362043
1193.703	28.620905
1193.865	29.021749
1194.026	28.973347
1194.187	28.712310
1194.349	28.582312
1194.510	28.686232
1194.671	28.863318
1194.832	29.010579
1194.993	29.860451
1195.155	30.288893
1195.316	29.830196
1195.477	29.718093
1195.638	29.447002
1195.799	29.294650
1195.960	29.781407
1196.121	30.145565
1196.282	30.462652
1196.443	30.971526
1196.604	31.526607
1196.765	31.465888
1196.926	31.330522
1197.087	31.193193
1197.248	31.137363
1197.409	31.844623
1197.570	32.196138
1197.730	32.108656
1197.891	31.737474
1198.052	31.707876
1198.213	31.360884
1198.374	31.061359
1198.534	30.351046
1198.695	30.021129
1198.856	30.754188
1199.016	30.640902
1199.177	29.964144
1199.338	29.900395
1199.498	30.097915
1199.659	30.537917
1199.820	30.950983
1199.980	31.117980
1200.141	31.104530
1200.301	32.084765
1200.462	32.371875
1200.622	32.247621
1200.783	32.298700
1200.943	32.304481
1201.104	32.502721
1201.264	32.679370
1201.424	32.778881
1201.585	32.995183
1201.745	33.373568
1201.906	33.294064
1202.066	33.013048
1202.226	33.196492
1202.386	33.054335
1202.547	33.300206
1202.707	33.743194
1202.867	33.567221
1203.027	33.366467
1203.188	33.404742
1203.348	33.189966
1203.508	33.217165
1203.668	33.404526
1203.828	33.536550
1203.988	33.584211
1204.148	33.508494
1204.308	32.814339
1204.468	31.981098
1204.628	31.781996
1204.788	31.587258
1204.948	31.401279
1205.108	31.725590
1205.268	31.514455
1205.428	31.676664
1205.588	31.831165
1205.748	31.477569
1205.908	31.731754
1206.068	32.282519
1206.228	32.855721
1206.387	33.258026
1206.547	33.489892
1206.707	33.434519
1206.867	32.976546
1207.026	32.616741
1207.186	32.526860
1207.346	32.257656
1207.505	32.579768
1207.665	32.305645
1207.825	32.465863
1207.984	32.759408
1208.144	32.780212
1208.303	32.760713
1208.463	32.903965
1208.622	33.380840
1208.782	33.978343
1208.941	34.618233
1209.101	34.649838
1209.260	35.060871
1209.420	35.458328
1209.579	35.140740
1209.739	34.859841
1209.898	34.510473
1210.057	34.450902
1210.217	34.557983
1210.376	34.422333
1210.535	34.169897
1210.694	33.870561
1210.854	34.038647
1211.013	33.921986
1211.172	33.967502
1211.331	34.923197
1211.490	35.376603
1211.650	35.521195
1211.809	35.673744
1211.968	35.869512
1212.127	36.050921
1212.286	36.266669
1212.445	35.919618
1212.604	35.771105
1212.763	35.696154
1212.922	35.913365
1213.081	35.546411
1213.240	34.850733
1213.399	35.185552
1213.558	35.937159
1213.717	36.309085
1213.876	36.066823
1214.035	35.692309
1214.194	35.831617
1214.352	35.724547
1214.511	35.882617
1214.670	36.081714
1214.829	35.896618
1214.988	36.645519
1215.146	36.727713
1215.305	36.362728
1215.464	36.171700
1215.622	36.591302
1215.781	37.625111
1215.940	37.636703
1216.098	37.625709
1216.257	37.430543
1216.415	37.484368
1216.574	37.914239
1216.732	37.842841
1216.891	37.783575
1217.049	37.718923
1217.208	37.886045
1217.366	37.910029
1217.525	36.921061
1217.683	37.349797
1217.842	37.696628
1218.000	37.735261
1218.158	37.751378
1218.317	37.590439
1218.475	38.168103
1218.633	38.402027
1218.792	38.652275
1218.950	38.619531
1219.108	38.691136
1219.266	39.097733
1219.425	38.741153
1219.583	39.118887
1219.741	39.362589
1219.899	39.304880
1220.057	39.532924
1220.215	39.258253
1220.373	39.143252
1220.531	39.286860
1220.689	39.483853
1220.847	39.157383
1221.005	39.088926
1221.163	39.180967
1221.322	39.218652
1221.479	39.468509
1221.637	39.230034
1221.795	39.105167
1221.953	38.998062
1222.111	39.500604
1222.269	39.624305
1222.427	39.560694
1222.584	40.052074
1222.742	40.549659
1222.900	40.606000
1223.058	40.695754
1223.216	40.850724
1223.373	41.428035
1223.531	41.748006
1223.689	41.624732
1223.846	41.343944
1224.004	40.777517
1224.162	40.625053
1224.319	40.556908
1224.477	40.418472
1224.634	40.565479
1224.792	40.845473
1224.949	40.680763
1225.107	40.457777
1225.264	40.114655
1225.422	40.455598
1225.579	40.508781
1225.737	40.812007
1225.894	40.872909
1226.052	40.891569
1226.209	41.251812
1226.366	41.620646
1226.523	41.410326
1226.681	41.809085
1226.838	41.882760
1226.995	42.501718
1227.153	42.692024
1227.310	42.595067
1227.467	42.515870
1227.624	42.523838
1227.781	42.616590
1227.938	42.482989
1228.096	42.310108
1228.253	42.030058
1228.410	41.765298
1228.567	41.936219
1228.724	41.507193
1228.881	41.563461
1229.038	42.199132
1229.195	42.568975
1229.352	42.871416
1229.509	42.998587
1229.666	43.378305
1229.823	43.350442
1229.980	43.411735
1230.136	43.384633
1230.293	43.100371
1230.450	43.383315
1230.607	43.187324
1230.764	43.130468
1230.921	43.418585
1231.077	43.298452
1231.234	43.177581
1231.391	42.844421
1231.547	43.141484
1231.704	43.039539
1231.861	42.731405
1232.018	42.848549
1232.174	42.886165
1232.331	42.777431
1232.487	42.933175
1232.644	42.977227
1232.800	43.098382
1232.957	43.369445
1233.113	43.465440
1233.270	43.068888
1233.426	43.097433
1233.583	43.266471
1233.739	43.446387
1233.896	43.613181
1234.052	43.788141
1234.208	43.633614
1234.365	43.536052
1234.521	43.770104
1234.677	43.767380
1234.834	43.392170
1234.990	43.461128
1235.146	44.032704
1235.302	43.891755
1235.459	44.151849
1235.615	43.889816
1235.771	44.276408
1235.927	44.476738
1236.083	44.196088
1236.239	44.365421
1236.396	44.404663
1236.552	44.679551
1236.708	45.430712
1236.864	45.704084
1237.020	46.456270
1237.176	46.581493
1237.332	47.122026
1237.488	47.125729
1237.644	46.892770
1237.799	47.396021
1237.955	47.382180
1238.111	47.661138
1238.267	47.904284
1238.423	46.912312
1238.579	46.456470
1238.734	46.427168
1238.890	46.254557
1239.046	46.155063
1239.202	46.225793
1239.357	46.292042
1239.513	46.281203
1239.669	46.141672
1239.824	46.010419
1239.980	46.427543
1240.136	47.358090
1240.291	47.318066
1240.447	47.642400
1240.603	48.252285
1240.758	48.648402
1240.914	48.741253
1241.069	49.061813
1241.225	48.966496
1241.380	48.757099
1241.535	48.447497
1241.691	48.366354
1241.846	48.353756
1242.002	49.184701
1242.157	48.690292
1242.313	48.172370
1242.468	48.147183
1242.623	48.434126
1242.778	48.511691
1242.934	48.694026
1243.089	48.872936
1243.244	48.895854
1243.399	48.251880
1243.554	48.134724
1243.710	47.411370
1243.865	47.397410
1244.020	47.304094
1244.175	46.763292
1244.330	46.914062
1244.485	46.736717
1244.640	46.493764
1244.795	46.712763
1244.950	47.717459
1245.105	48.350611
1245.260	48.492221
1245.415	48.518581
1245.570	48.359133
1245.725	48.605966
1245.880	48.879983
1246.035	48.356607
1246.190	48.389611
1246.345	48.641285
1246.499	48.659559
1246.654	48.534458
1246.809	49.014634
1246.964	49.377632
1247.118	49.938973
1247.273	51.100363
1247.428	51.757505
1247.583	52.399485
1247.737	52.212656
1247.892	52.275197
1248.047	52.530146
1248.201	52.255426
1248.356	51.950812
1248.510	51.883331
1248.665	51.689465
1248.819	52.015458
1248.974	51.986080
1249.128	51.305752
1249.283	51.053279
1249.437	51.750925
1249.592	52.299444
1249.746	51.838503
1249.900	52.516983
1250.055	52.581846
1250.209	52.195803
1250.363	52.229699
1250.518	52.343891
1250.672	52.882176
1250.826	53.862980
1250.981	53.967303
1251.135	53.685176
1251.289	53.462594
1251.443	54.198171
1251.597	53.728821
1251.751	53.218087
1251.906	53.426753
1252.060	53.950680
1252.214	54.262020
1252.368	53.639199
1252.522	52.730735
1252.676	52.772871
1252.830	52.841691
1252.984	52.606651
1253.138	52.597860
1253.292	53.491537
1253.446	54.399046
1253.600	54.937070
1253.754	54.734620
1253.907	53.587614
1254.061	53.423833
1254.215	53.702528
1254.369	53.697550
1254.523	54.641688
1254.677	55.132928
1254.830	55.034837
1254.984	54.195690
1255.138	53.491905
1255.292	52.754301
1255.445	52.373975
1255.599	53.096988
1255.752	53.678005
1255.906	53.841905
1256.060	54.241546
1256.213	53.324336
1256.367	53.490907
1256.520	53.628330
1256.674	54.308903
1256.827	55.031491
1256.981	55.512949
1257.134	55.275021
1257.288	55.072900
1257.441	54.434082
1257.594	54.540044
1257.748	54.347497
1257.901	55.373628
1258.055	55.214374
1258.208	55.152066
1258.361	55.271054
1258.515	55.163987
1258.668	54.816934
1258.821	55.266227
1258.974	55.925906
1259.127	55.728472
1259.281	55.863285
1259.434	55.962350
1259.587	55.041053
1259.740	54.980616
1259.893	55.532651
1260.046	55.637229
1260.199	55.779621
1260.352	56.196628
1260.505	55.775565
1260.658	54.819109
1260.811	55.068687
1260.964	55.365782
1261.117	55.779509
1261.270	56.153712
1261.423	55.322826
1261.576	54.987038
1261.729	55.032494
1261.882	55.188283
1262.035	55.406849
1262.188	56.364341
1262.340	56.692912
1262.493	56.876490
1262.646	56.842496
1262.798	57.432175
1262.951	58.212509
1263.104	60.100770
1263.257	60.125454
1263.409	59.635939
1263.562	58.110873
1263.714	57.632833
1263.867	58.398853
1264.020	60.078478
1264.172	61.043658
1264.325	61.421297
1264.477	60.328279
1264.630	59.769159
1264.782	58.814379
1264.935	58.388931
1265.087	59.396411
1265.240	61.561044
1265.392	61.732547
1265.544	60.686531
1265.697	59.306829
1265.849	59.372587
1266.001	58.662602
1266.154	58.765058
1266.306	58.957754
1266.458	58.931977
1266.610	59.819037
1266.762	59.847811
1266.915	59.970715
1267.067	60.255864
1267.219	60.528133
1267.371	60.788577
1267.523	60.187928
1267.675	61.238261
1267.828	61.314762
1267.979	61.280056
1268.132	61.686420
1268.284	61.312092
1268.436	61.293972
1268.588	61.206827
1268.740	62.366484
1268.891	62.577060
1269.043	61.762664
1269.195	60.186295
1269.347	59.047581
1269.499	59.032301
1269.651	58.903785
1269.803	58.991396
1269.955	58.749511
1270.106	58.460728
1270.258	57.690935
1270.410	56.668465
1270.562	56.675735
1270.713	57.545059
1270.865	59.124257
1271.017	59.933409
1271.168	60.155243
1271.320	59.857652
1271.471	59.446815
1271.623	60.266370
1271.775	60.737056
1271.926	60.861872
1272.078	60.783902
1272.229	60.390257
1272.381	61.539104
1272.532	62.215802
1272.684	61.023382
1272.835	60.294133
1272.986	60.967320
1273.138	62.189340
1273.289	61.527948
1273.440	60.712260
1273.592	61.040251
1273.743	61.714708
1273.894	62.562561
1274.046	63.550679
1274.197	63.144161
1274.348	64.624393
1274.500	65.922101
1274.651	66.153182
1274.802	65.554242
>>>>>>>>>> END of Data <<<<<<<<<<
