Date	2025年07月03日木曜日 09時50分36秒
Spectrometers	SR401765
ダーク	使用
リファレンス	使用
積分時間[msec]	300
平均回数	1
ｽﾑｰｼﾞﾝｸﾞ	5
Electrical Dark	USE
ピクセル数	3648
計測モード	反射率
保存開始波長[nm]	598.495
保存終了波長[nm]	1274.802
保存ﾋﾟｯﾁ波長[nm]	全波長

>>>>>>>>>> Data Start <<<<<<<<<<<<
598.495	-9.218452
598.713	-9.218452
598.931	-9.218452
599.148	-9.218452
599.366	0.000000
599.584	0.000000
599.802	0.000000
600.020	0.000000
600.238	0.000000
600.455	-90.815852
600.673	-141.158123
600.891	39.800678
601.109	45.630337
601.326	46.252021
601.544	47.115440
601.762	47.055285
601.979	46.642034
602.197	46.601248
602.415	46.695422
602.632	46.722550
602.850	46.660084
603.067	46.552488
603.285	46.861335
603.502	46.949272
603.720	47.090281
603.938	47.173756
604.155	47.380550
604.372	47.802440
604.590	48.210973
604.807	48.496327
605.025	48.857437
605.242	49.253911
605.460	49.665965
605.677	49.808636
605.894	50.035842
606.112	50.370892
606.329	50.679546
606.546	50.825909
606.764	50.980960
606.981	51.113336
607.198	51.138110
607.415	51.079385
607.633	51.194466
607.850	51.229575
608.067	51.216575
608.284	51.218216
608.501	51.307999
608.718	51.339657
608.935	51.571147
609.153	51.747698
609.370	51.801680
609.587	51.837028
609.804	52.122350
610.021	52.289396
610.238	52.340599
610.455	52.314246
610.672	52.384878
610.889	52.489524
611.106	52.604233
611.323	52.694684
611.540	52.834582
611.756	53.009030
611.973	53.244460
612.190	53.379238
612.407	53.764097
612.624	54.272262
612.841	54.713910
613.057	54.914337
613.274	54.970261
613.491	55.062608
613.708	54.959886
613.925	54.878354
614.141	54.785603
614.358	54.858571
614.575	54.820779
614.791	54.528859
615.008	54.268563
615.225	54.376569
615.441	54.729371
615.658	54.820833
615.874	54.831479
616.091	55.057771
616.307	55.234442
616.524	55.613327
616.740	55.976130
616.957	56.205014
617.173	56.499530
617.390	56.890944
617.606	57.006481
617.823	56.829592
618.039	56.775154
618.256	57.033988
618.472	57.476343
618.688	57.887600
618.905	58.039437
619.121	58.099188
619.337	58.363765
619.554	58.731929
619.770	58.917491
619.986	59.169153
620.202	59.605619
620.419	59.930689
620.635	59.979534
620.851	59.793760
621.067	59.645213
621.283	59.679602
621.499	59.775753
621.716	59.950010
621.932	59.856909
622.148	59.879879
622.364	60.082859
622.580	60.440238
622.796	60.976847
623.012	61.524600
623.228	62.156442
623.444	62.902257
623.660	63.365168
623.876	63.560803
624.092	63.578040
624.308	63.912346
624.524	64.276116
624.740	64.426629
624.955	64.251521
625.171	63.927002
625.387	63.909040
625.603	63.953022
625.819	63.722550
626.034	63.511760
626.250	63.585072
626.466	64.018418
626.682	64.261374
626.897	64.197911
627.113	64.115439
627.329	64.102719
627.544	64.310288
627.760	64.373100
627.976	64.302519
628.191	64.464561
628.407	64.603811
628.623	64.796499
628.838	64.909669
629.054	65.084798
629.269	65.319936
629.485	65.480885
629.700	65.729419
629.916	65.944977
630.131	66.162241
630.347	66.423410
630.562	66.577404
630.777	67.023707
630.993	67.410690
631.208	67.726575
631.424	67.813259
631.639	68.014285
631.854	68.461176
632.070	68.902262
632.285	69.203220
632.500	69.526103
632.715	69.679278
632.931	69.765908
633.146	69.992267
633.361	70.274980
633.576	70.329063
633.791	70.302893
634.007	70.153048
634.222	69.819251
634.437	69.516474
634.652	69.329106
634.867	69.195275
635.082	69.186707
635.297	69.401807
635.512	69.429373
635.727	69.362067
635.942	69.164967
636.157	69.052398
636.372	69.216841
636.587	69.538327
636.802	69.944608
637.017	70.352879
637.232	70.583980
637.447	70.877368
637.662	70.874113
637.876	70.983430
638.091	70.948065
638.306	70.885121
638.521	71.163481
638.736	71.312699
638.951	71.323166
639.165	71.246048
639.380	70.957279
639.595	70.612088
639.809	70.432536
640.024	70.506450
640.239	70.336043
640.453	70.436134
640.668	70.809713
640.883	70.900726
641.097	71.152756
641.312	71.565321
641.526	72.072637
641.741	72.774098
641.955	73.504831
642.170	73.974918
642.384	74.243766
642.599	74.457924
642.813	74.525280
643.028	74.614316
643.242	74.699007
643.457	74.773047
643.671	75.038255
643.885	75.160095
644.100	74.998120
644.314	74.502245
644.528	74.090583
644.743	74.058824
644.957	74.101314
645.171	74.120244
645.386	73.924800
645.600	74.105090
645.814	74.153229
646.028	73.921921
646.242	73.558410
646.457	73.225704
646.671	73.233495
646.885	73.343863
647.099	73.441272
647.313	73.651927
647.527	73.910636
647.741	74.400278
647.955	74.523428
648.169	74.496973
648.383	74.299387
648.597	74.336794
648.811	74.701760
649.025	75.201718
649.239	75.458069
649.453	75.269182
649.667	74.976395
649.881	74.638902
650.095	74.452651
650.309	74.494684
650.523	74.530963
650.737	74.492084
650.950	74.243624
651.164	74.077933
651.378	73.859963
651.592	73.743738
651.805	73.758134
652.019	73.830483
652.233	73.936157
652.447	73.848256
652.660	73.789388
652.874	73.846781
653.088	74.172954
653.301	74.701720
653.515	75.056659
653.728	75.214770
653.942	75.345804
654.156	75.747713
654.369	76.232629
654.583	76.507203
654.796	76.720235
655.010	76.699969
655.223	76.587792
655.437	76.504555
655.650	76.362965
655.863	76.277713
656.077	76.391259
656.290	76.537672
656.504	76.542364
656.717	76.546830
656.930	76.786129
657.144	76.999667
657.357	77.138565
657.570	77.330563
657.783	77.464421
657.997	77.654752
658.210	77.811372
658.423	77.954003
658.636	78.155456
658.849	78.176315
659.063	78.081807
659.276	78.153591
659.489	78.197163
659.702	78.202040
659.915	78.209475
660.128	78.183266
660.341	78.111857
660.554	78.167766
660.767	78.151577
660.980	77.912124
661.193	77.735920
661.406	77.607131
661.619	77.359691
661.832	77.397008
662.045	77.738316
662.258	77.998275
662.471	78.100035
662.684	78.232317
662.897	78.209137
663.110	78.123709
663.322	78.438443
663.535	78.886446
663.748	79.048497
663.961	79.180872
664.174	79.296505
664.386	79.302618
664.599	79.563262
664.812	80.068063
665.024	80.452743
665.237	80.549760
665.450	80.673669
665.662	80.724662
665.875	80.641024
666.088	80.955076
666.300	81.318855
666.513	81.437932
666.725	81.299101
666.938	81.078978
667.150	80.704372
667.363	80.222363
667.575	80.135939
667.788	80.267701
668.000	80.299334
668.213	80.329313
668.425	80.106902
668.638	79.638929
668.850	79.187779
669.062	79.199577
669.275	79.558661
669.487	79.953757
669.699	80.248846
669.912	80.460128
670.124	80.462985
670.336	80.388886
670.548	80.422751
670.761	80.747375
670.973	81.310479
671.185	81.686444
671.397	81.530958
671.609	80.960024
671.822	80.535333
672.034	80.466308
672.246	80.401985
672.458	80.298518
672.670	80.152546
672.882	79.997987
673.094	79.589991
673.306	79.132494
673.518	78.998210
673.730	79.121161
673.942	79.222875
674.154	79.227808
674.366	79.177085
674.578	79.155137
674.790	79.351204
675.002	79.655163
675.214	79.931036
675.425	80.221916
675.637	80.457347
675.849	80.684457
676.061	80.811784
676.273	80.738281
676.484	80.709204
676.696	80.846708
676.908	81.088213
677.120	81.191724
677.331	81.114468
677.543	81.071268
677.755	81.071705
677.966	81.093517
678.178	81.077598
678.389	81.172088
678.601	81.550756
678.813	82.002791
679.024	82.226930
679.236	82.181476
679.447	82.299911
679.659	82.577250
679.870	82.579863
680.082	82.268098
680.293	81.859792
680.505	81.556178
680.716	81.371815
680.927	81.162149
681.139	81.112573
681.350	81.301386
681.562	81.456204
681.773	81.382174
681.984	81.231224
682.196	81.075966
682.407	81.265114
682.618	81.587305
682.829	81.559855
683.041	81.449335
683.252	81.680462
683.463	81.806264
683.674	81.484565
683.885	81.145471
684.097	80.862801
684.308	80.749736
684.519	80.757000
684.730	80.579244
684.941	80.601322
685.152	81.192102
685.363	81.763726
685.574	81.610390
685.785	81.225878
685.996	81.081848
686.207	81.164508
686.418	81.509606
686.629	81.653052
686.840	81.685562
687.051	81.894717
687.262	81.861773
687.473	81.706684
687.684	81.517147
687.894	81.398203
688.105	81.455079
688.316	81.555619
688.527	81.374870
688.738	80.835944
688.948	80.379568
689.159	80.284575
689.370	80.235256
689.580	80.349995
689.791	80.444136
690.002	80.528026
690.212	80.910612
690.423	81.122078
690.634	81.131078
690.844	81.386186
691.055	81.668585
691.266	81.879092
691.476	81.897824
691.687	81.666874
691.897	81.181764
692.108	80.617721
692.318	80.407282
692.529	80.180549
692.739	79.957810
692.949	79.746407
693.160	79.436682
693.370	79.319048
693.581	79.298679
693.791	79.316709
694.001	79.726630
694.212	80.436107
694.422	81.111104
694.632	81.504334
694.843	81.928360
695.053	82.420922
695.263	82.762711
695.473	83.256369
695.683	83.677641
695.894	83.901897
696.104	84.031199
696.314	83.935949
696.524	83.757241
696.734	83.631179
696.944	83.599849
697.154	83.486042
697.365	83.075286
697.575	82.852304
697.785	82.667331
697.995	82.487348
698.205	82.605947
698.415	83.161181
698.625	83.624042
698.834	83.605567
699.044	83.417412
699.254	83.266310
699.464	82.926654
699.674	82.517283
699.884	82.245804
700.094	82.172392
700.304	82.046963
700.513	81.656167
700.723	80.885818
700.933	80.326883
701.143	80.276301
701.353	80.250729
701.562	80.084243
701.772	80.172327
701.982	80.312291
702.191	80.122919
702.401	79.871678
702.611	79.650777
702.820	79.763042
703.030	80.084260
703.239	80.277732
703.449	80.162913
703.659	79.927605
703.868	79.736779
704.078	79.793082
704.287	80.264573
704.497	80.934229
704.706	81.168696
704.916	81.321808
705.125	81.311463
705.334	81.159475
705.544	80.795378
705.753	80.359294
705.962	80.212380
706.172	80.092508
706.381	79.637996
706.590	78.945068
706.800	78.561998
707.009	78.608966
707.218	78.569855
707.428	78.477969
707.637	78.451373
707.846	78.510536
708.055	78.718683
708.264	78.923812
708.474	79.061670
708.683	79.127114
708.892	79.256018
709.101	79.321370
709.310	79.243434
709.519	79.448066
709.728	79.716214
709.937	79.839918
710.146	80.086057
710.355	80.173242
710.564	80.105249
710.773	80.220426
710.982	80.704808
711.191	81.477857
711.400	82.131780
711.609	82.498128
711.818	82.605644
712.027	82.424529
712.235	82.180189
712.444	82.025489
712.653	81.940821
712.862	81.861409
713.071	81.718275
713.279	81.357457
713.488	80.927473
713.697	80.447258
713.906	79.982532
714.114	79.716973
714.323	79.633968
714.532	79.578146
714.740	79.389944
714.949	79.318760
715.157	79.173746
715.366	78.918852
715.575	78.727059
715.783	78.708059
715.992	78.871461
716.200	79.122421
716.409	79.236658
716.617	79.447527
716.826	79.677837
717.034	79.802918
717.242	79.882652
717.451	80.180504
717.659	80.499105
717.868	80.493851
718.076	80.021809
718.284	79.440680
718.493	79.035466
718.701	78.695646
718.909	78.395554
719.118	78.133193
719.326	77.821027
719.534	77.653780
719.742	77.304977
719.951	76.892454
720.159	77.030543
720.367	77.506152
720.575	77.801225
720.783	77.906021
720.991	78.172075
721.199	78.349713
721.408	78.288391
721.616	78.240701
721.824	78.263282
722.032	78.540077
722.240	78.745656
722.448	78.563029
722.656	78.195213
722.864	78.134983
723.072	78.183645
723.280	77.920230
723.487	77.597573
723.695	77.610869
723.903	77.796704
724.111	77.661464
724.319	77.252510
724.527	76.891208
724.735	76.564296
724.942	76.364001
725.150	76.077449
725.358	76.009289
725.566	76.305686
725.773	76.540036
725.981	76.477531
726.189	76.401938
726.396	76.498977
726.604	76.688171
726.812	76.802563
727.019	76.981194
727.227	77.148120
727.435	77.531419
727.642	77.685878
727.850	77.423303
728.057	76.994824
728.265	76.654657
728.472	76.451509
728.680	76.506205
728.887	76.486913
729.095	76.439881
729.302	76.417150
729.509	76.194397
729.717	75.762154
729.924	75.469132
730.132	75.276324
730.339	75.218532
730.546	75.431565
730.753	75.741841
730.961	75.751328
731.168	75.778795
731.375	76.009363
731.583	76.108991
731.790	76.278598
731.997	76.431009
732.204	76.337475
732.411	76.285533
732.618	76.426276
732.826	76.428006
733.033	76.192036
733.240	76.059760
733.447	75.796299
733.654	75.448709
733.861	75.313024
734.068	75.186500
734.275	75.044593
734.482	74.958772
734.689	74.918208
734.896	74.992793
735.103	75.139742
735.310	75.410249
735.517	75.663399
735.724	76.034131
735.931	76.323098
736.137	76.442685
736.344	76.660777
736.551	76.790955
736.758	76.764353
736.965	76.565215
737.171	75.961565
737.378	75.171531
737.585	74.503475
737.792	73.978951
737.998	73.634614
738.205	73.555850
738.412	73.262851
738.618	72.649732
738.825	71.829679
739.032	71.059989
739.238	70.427400
739.445	69.992528
739.651	69.762319
739.858	69.653099
740.064	69.539480
740.271	69.324119
740.477	68.804818
740.684	68.300843
740.890	67.860224
741.097	67.662949
741.303	67.733770
741.510	68.015218
741.716	68.411094
741.922	68.859040
742.129	69.025796
742.335	68.889716
742.541	68.499351
742.748	68.179031
742.954	68.440166
743.160	69.082310
743.366	69.611947
743.573	69.720516
743.779	69.529223
743.985	69.206521
744.191	68.782483
744.397	68.652307
744.604	69.010297
744.810	69.449033
745.016	69.668820
745.222	69.541357
745.428	69.279395
745.634	69.110921
745.840	69.064922
746.046	68.882366
746.252	68.668862
746.458	68.404732
746.664	67.909639
746.870	67.170869
747.076	66.786356
747.282	66.837623
747.488	66.797258
747.694	66.573035
747.900	66.362412
748.105	66.440770
748.311	66.809990
748.517	66.948587
748.723	67.016874
748.929	67.038326
749.134	67.126934
749.340	67.036253
749.546	66.923633
749.752	67.131806
749.957	67.409096
750.163	67.547572
750.369	67.446483
750.574	67.310918
750.780	67.349704
750.985	67.501069
751.191	67.743431
751.397	67.780651
751.602	67.614522
751.808	67.187974
752.013	66.421333
752.219	65.832353
752.424	65.680769
752.630	65.621240
752.835	65.331265
753.041	65.121654
753.246	64.784316
753.451	64.341045
753.657	64.058770
753.862	63.991542
754.067	64.002542
754.273	64.275039
754.478	64.284336
754.683	63.976149
754.889	63.537453
755.094	63.144333
755.299	62.890903
755.504	62.629646
755.710	62.349730
755.915	62.016447
756.120	61.637485
756.325	61.401092
756.530	61.020910
756.735	60.715326
756.940	60.425309
757.146	60.311326
757.351	60.330872
757.556	60.278322
757.761	60.376119
757.966	60.433391
758.171	60.314166
758.376	60.079067
758.581	59.724247
758.786	59.431605
758.990	59.140658
759.195	58.904412
759.400	58.372326
759.605	57.673984
759.810	57.055763
760.015	56.602785
760.220	56.191001
760.424	55.883330
760.629	55.601155
760.834	55.512731
761.039	55.474344
761.244	55.414837
761.448	55.380991
761.653	55.669260
761.858	56.086002
762.062	56.253646
762.267	56.183318
762.472	55.968955
762.676	55.755895
762.881	55.611479
763.085	55.239295
763.290	54.767164
763.494	54.074907
763.699	53.194518
763.903	52.297153
764.108	51.469235
764.312	50.842442
764.517	50.374623
764.721	50.164018
764.926	49.974104
765.130	49.686805
765.335	49.460230
765.539	49.118272
765.743	48.992119
765.948	49.142403
766.152	49.243533
766.356	49.214326
766.560	49.167029
766.765	48.944216
766.969	48.622849
767.173	48.271455
767.377	47.950007
767.582	47.567505
767.786	47.462834
767.990	47.446447
768.194	47.137838
768.398	46.742260
768.602	46.401033
768.806	46.040826
769.010	45.707694
769.215	45.298571
769.419	45.009611
769.623	44.869742
769.827	44.691352
770.031	44.218304
770.234	43.761887
770.438	43.465846
770.642	43.242038
770.846	43.044581
771.050	42.894600
771.254	42.735143
771.458	42.666819
771.662	42.414090
771.866	42.087638
772.069	41.744859
772.273	41.381793
772.477	40.745476
772.681	40.032256
772.885	39.278645
773.088	38.575617
773.292	37.810204
773.496	37.082846
773.699	36.388348
773.903	35.781099
774.107	35.268448
774.310	34.894319
774.514	34.648952
774.717	34.620147
774.921	34.642230
775.124	34.656257
775.328	34.586164
775.531	34.473546
775.735	34.364388
775.938	34.170878
776.142	33.906337
776.345	33.546942
776.549	33.193848
776.752	32.871548
776.956	32.637817
777.159	32.311953
777.362	31.839669
777.566	31.453448
777.769	31.080557
777.972	30.697605
778.176	30.335616
778.379	29.966706
778.582	29.606101
778.785	29.332946
778.989	29.032436
779.192	28.590854
779.395	28.185229
779.598	27.754565
779.801	27.240150
780.004	26.845812
780.207	26.392743
780.411	25.888427
780.614	25.453414
780.817	25.077136
781.020	24.617524
781.223	24.290739
781.426	23.972667
781.629	23.625331
781.832	23.410607
782.035	23.245764
782.238	22.984670
782.440	22.774789
782.643	22.546062
782.846	22.326502
783.049	22.056131
783.252	21.754466
783.455	21.357174
783.658	20.947585
783.860	20.598772
784.063	20.293033
784.266	19.998053
784.469	19.732761
784.671	19.376659
784.874	19.074481
785.077	18.814852
785.279	18.504441
785.482	18.225188
785.685	17.847834
785.887	17.440142
786.090	17.125208
786.293	16.861502
786.495	16.591648
786.698	16.274329
786.900	16.125396
787.103	16.067273
787.305	15.933222
787.508	15.718427
787.710	15.575097
787.913	15.488424
788.115	15.408846
788.317	15.270607
788.520	15.139869
788.722	14.935093
788.924	14.722062
789.127	14.446183
789.329	14.149322
789.531	13.939939
789.734	13.791893
789.936	13.517902
790.138	13.231974
790.340	12.919608
790.543	12.674462
790.745	12.452183
790.947	12.271453
791.149	12.195334
791.351	12.127368
791.553	11.949838
791.756	11.755353
791.958	11.660274
792.160	11.703008
792.362	11.841107
792.564	11.948616
792.766	11.866121
792.968	11.838198
793.170	11.734739
793.372	11.557483
793.574	11.357783
793.776	11.197109
793.978	11.107133
794.180	10.868317
794.381	10.597480
794.583	10.277396
794.785	10.094385
794.987	10.167690
795.189	10.145678
795.391	10.173294
795.592	10.202468
795.794	10.183025
795.996	10.254359
796.198	10.239527
796.399	10.328557
796.601	10.389866
796.803	10.402627
797.004	10.389537
797.206	10.414761
797.407	10.445126
797.609	10.468684
797.811	10.507566
798.012	10.621900
798.214	10.571915
798.415	10.519016
798.617	10.618541
798.818	10.658941
799.020	10.754534
799.221	10.903252
799.423	10.869128
799.624	10.826785
799.826	10.836882
800.027	10.917699
800.228	10.989378
800.430	11.173860
800.631	11.361092
800.832	11.431315
801.034	11.630579
801.235	11.795692
801.436	11.871031
801.637	12.055310
801.839	12.312454
802.040	12.547279
802.241	12.781221
802.442	13.058610
802.643	13.332761
802.844	13.565808
803.046	13.775067
803.247	13.815437
803.448	13.973075
803.649	14.201461
803.850	14.518137
804.051	14.796351
804.252	15.029445
804.453	15.133883
804.654	15.174532
804.855	15.245223
805.056	15.539286
805.257	15.788001
805.458	16.125361
805.659	16.343441
805.859	16.456229
806.060	16.439956
806.261	16.437183
806.462	16.565456
806.663	16.794158
806.864	17.142010
807.064	17.463433
807.265	17.566369
807.466	17.810426
807.667	18.163428
807.867	18.513169
808.068	18.886716
808.269	19.261052
808.469	19.601786
808.670	19.894910
808.870	20.181718
809.071	20.360280
809.272	20.544903
809.472	20.796748
809.673	20.999248
809.873	21.176679
810.074	21.367476
810.274	21.620342
810.475	21.868310
810.675	22.042926
810.876	22.181163
811.076	22.370894
811.276	22.676745
811.477	23.019226
811.677	23.348686
811.878	23.613726
812.078	23.811351
812.278	24.025365
812.479	24.316454
812.679	24.662811
812.879	25.089198
813.079	25.348554
813.280	25.603123
813.480	25.846590
813.680	26.053032
813.880	26.181798
814.080	26.323764
814.280	26.576061
814.480	27.101721
814.681	27.515803
814.881	27.820756
815.081	28.166227
815.281	28.730640
815.481	29.218568
815.681	29.678745
815.881	30.075565
816.081	30.484880
816.281	30.871443
816.481	31.337758
816.681	31.555932
816.880	31.804367
817.080	32.068538
817.280	32.299948
817.480	32.510370
817.680	32.637962
817.880	32.827273
818.080	32.906735
818.279	33.027305
818.479	33.150581
818.679	33.245057
818.879	33.490702
819.078	33.771022
819.278	34.083021
819.478	34.384465
819.677	34.660141
819.877	35.048921
820.077	35.303707
820.276	35.933796
820.476	36.488211
820.675	36.873270
820.875	37.082603
821.074	37.116818
821.274	37.071393
821.473	37.124016
821.673	37.255265
821.872	37.432160
822.072	37.699406
822.271	38.034419
822.471	38.227438
822.670	38.405014
822.869	38.818566
823.069	39.218065
823.268	39.653678
823.467	40.127023
823.667	40.485765
823.866	40.687219
824.065	40.935663
824.265	41.135212
824.464	41.247163
824.663	41.264953
824.862	41.406329
825.061	41.619087
825.261	41.697627
825.460	41.706800
825.659	41.800476
825.858	41.801494
826.057	42.137269
826.256	42.606763
826.455	42.975621
826.654	43.292345
826.853	43.669611
827.052	43.994223
827.251	44.201759
827.450	44.377195
827.649	44.453785
827.848	44.675881
828.047	45.192403
828.246	45.432178
828.445	45.305879
828.644	45.141239
828.843	45.078894
829.041	44.917946
829.240	44.766065
829.439	44.869878
829.638	45.166718
829.836	45.683841
830.035	46.127834
830.234	46.410346
830.433	46.799738
830.631	47.410476
830.830	48.115601
831.029	48.705530
831.227	49.591220
831.426	50.535518
831.624	51.169125
831.823	51.664013
832.022	51.847716
832.220	51.738551
832.419	51.591475
832.617	51.491632
832.816	51.315365
833.014	51.204224
833.213	51.342239
833.411	51.274918
833.609	51.425029
833.808	51.677608
834.006	51.926302
834.205	52.078331
834.403	52.474349
834.601	52.884274
834.800	53.003824
834.998	53.194809
835.196	53.343656
835.394	53.361017
835.593	53.316692
835.791	52.849753
835.989	52.202922
836.187	51.633374
836.385	51.447031
836.584	51.349982
836.782	51.487524
836.980	51.775110
837.178	52.146576
837.376	52.369244
837.574	52.546092
837.772	52.951535
837.970	53.582082
838.168	54.290072
838.366	55.024623
838.564	55.790022
838.762	56.176600
838.960	56.109738
839.158	55.911381
839.356	55.559424
839.554	55.272865
839.752	55.197835
839.949	55.074556
840.147	55.189735
840.345	55.605856
840.543	55.927286
840.741	55.828400
840.938	55.649994
841.136	55.759538
841.334	56.010600
841.532	55.881411
841.729	55.798310
841.927	55.615279
842.125	55.558986
842.322	55.456891
842.520	55.049041
842.718	54.953434
842.915	55.228139
843.113	55.744902
843.310	56.328800
843.508	56.945703
843.705	57.979683
843.903	59.071430
844.100	59.812245
844.298	60.066342
844.495	59.975538
844.693	60.030257
844.890	59.760718
845.087	59.640614
845.285	59.626952
845.482	59.505262
845.679	59.197063
845.877	59.015676
846.074	58.973645
846.271	59.321508
846.469	60.008242
846.666	60.683030
846.863	61.294566
847.060	62.116076
847.257	62.401854
847.455	62.400129
847.652	62.344774
847.849	62.394526
848.046	62.627628
848.243	62.640546
848.440	62.460457
848.637	62.186898
848.834	61.791443
849.031	61.232228
849.228	60.477309
849.425	60.074367
849.622	59.824648
849.819	59.905468
850.016	60.241646
850.213	60.220418
850.410	60.113160
850.607	59.935643
850.804	59.619052
851.001	59.719569
851.198	59.915804
851.394	60.213538
851.591	60.669660
851.788	61.459446
851.985	61.744964
852.181	61.795633
852.378	61.646979
852.575	61.481986
852.772	61.357104
852.968	61.216449
853.165	61.030479
853.362	61.299891
853.558	61.629420
853.755	61.945769
853.951	62.198241
854.148	62.627999
854.345	62.936734
854.541	63.152828
854.738	63.604009
854.934	64.160413
855.131	64.896824
855.327	65.369003
855.523	65.455472
855.720	65.434536
855.916	64.995911
856.113	64.299701
856.309	63.641072
856.505	63.253174
856.702	63.391608
856.898	63.333201
857.094	63.402909
857.291	63.779088
857.487	64.343755
857.683	64.609150
857.879	64.965532
858.076	65.641080
858.272	66.426274
858.468	67.444061
858.664	68.406231
858.860	68.868259
859.056	69.097816
859.253	69.377410
859.449	69.572363
859.645	69.728928
859.841	70.161766
860.037	70.435737
860.233	70.485297
860.429	70.491466
860.625	70.296137
860.821	70.352991
861.017	70.691739
861.213	71.168658
861.409	71.302259
861.604	71.071783
861.800	70.945847
861.996	70.667626
862.192	70.326004
862.388	70.154146
862.584	69.983949
862.779	69.781804
862.975	69.141161
863.171	68.147761
863.367	67.521952
863.562	67.283570
863.758	67.340206
863.954	67.173583
864.149	67.372127
864.345	67.508418
864.541	67.355688
864.736	67.309722
864.932	67.297391
865.127	67.363622
865.323	67.980704
865.518	68.597762
865.714	68.964069
865.910	69.098346
866.105	69.156114
866.300	68.708228
866.496	68.818651
866.691	69.447649
866.887	70.105974
867.082	70.662989
867.277	71.161569
867.473	71.254792
867.668	71.165835
867.864	70.870216
868.059	70.561652
868.254	70.754300
868.449	71.389636
868.645	71.765700
868.840	72.012562
869.035	72.221928
869.230	72.726182
869.425	73.042558
869.621	73.019552
869.816	72.750492
870.011	72.639552
870.206	72.692543
870.401	72.695696
870.596	72.743086
870.791	72.575094
870.986	72.075346
871.181	71.433238
871.376	70.478026
871.571	69.704901
871.766	69.325053
871.961	69.508380
872.156	69.778939
872.351	70.035216
872.546	70.078056
872.741	69.878156
872.936	69.737773
873.130	69.960398
873.325	70.442580
873.520	71.049141
873.715	71.502874
873.910	71.718998
874.104	71.300795
874.299	70.728142
874.494	70.393643
874.688	70.424393
874.883	70.489264
875.078	70.659925
875.272	70.753314
875.467	70.156899
875.662	69.303102
875.856	68.803749
876.051	68.917668
876.245	69.339140
876.440	69.867284
876.634	69.928228
876.829	69.604147
877.023	69.605986
877.218	69.521075
877.412	69.030447
877.607	68.675294
877.801	68.325993
877.995	67.884673
878.190	67.415057
878.384	67.522323
878.578	67.718030
878.773	68.164746
878.967	68.667962
879.161	69.076268
879.356	69.615419
879.550	70.035133
879.744	70.863990
879.938	71.803726
880.133	72.925536
880.327	73.849980
880.521	74.428298
880.715	74.900103
880.909	75.051958
881.103	75.078588
881.297	75.332473
881.491	75.500211
881.685	76.264153
881.880	76.796926
882.073	77.203632
882.267	77.384940
882.461	77.645531
882.655	77.846188
882.849	77.904292
883.043	78.227564
883.237	78.233150
883.431	77.731796
883.625	77.129681
883.819	76.476266
884.013	76.060158
884.206	76.015199
884.400	76.050624
884.594	75.898147
884.788	75.572996
884.982	75.781448
885.175	75.791764
885.369	75.902511
885.563	75.795112
885.756	75.894649
885.950	75.888927
886.144	75.641448
886.337	75.445398
886.531	75.414940
886.724	75.573391
886.918	76.096133
887.112	76.367875
887.305	76.483936
887.499	76.581017
887.692	76.986269
887.885	76.983954
888.079	76.532178
888.272	76.414345
888.466	76.473630
888.659	76.365724
888.853	76.112213
889.046	75.495272
889.239	74.431178
889.433	73.598300
889.626	72.839314
889.819	71.760844
890.013	71.042125
890.206	71.060517
890.399	70.973737
890.592	70.606195
890.785	70.365390
890.979	70.319063
891.172	70.386879
891.365	70.663023
891.558	71.205125
891.751	71.812782
891.944	72.361883
892.137	72.818843
892.330	72.979962
892.524	72.895681
892.717	73.082536
892.910	73.172681
893.103	73.135486
893.296	73.013354
893.488	72.582707
893.681	71.974480
893.874	71.560521
894.067	71.696136
894.260	72.113965
894.453	72.511867
894.646	73.127123
894.839	73.577328
895.031	74.176033
895.224	74.902253
895.417	75.592579
895.610	76.665929
895.802	77.290949
895.995	77.854858
896.188	77.899624
896.381	77.288176
896.573	76.946866
896.766	77.078673
896.958	77.299028
897.151	77.190230
897.344	76.912659
897.536	76.485632
897.729	76.188270
897.921	76.230543
898.114	76.174238
898.306	76.330583
898.499	76.577187
898.691	76.594099
898.884	76.167608
899.076	75.715781
899.269	75.326539
899.461	75.061822
899.653	75.153890
899.846	75.249280
900.038	75.383474
900.230	75.345982
900.423	75.248786
900.615	75.825140
900.807	76.569514
901.000	77.180022
901.192	77.394132
901.384	77.507991
901.576	77.546100
901.768	77.530316
901.961	77.751150
902.153	77.921536
902.345	78.355502
902.537	78.903869
902.729	78.897160
902.921	78.674042
903.113	78.716096
903.305	79.492440
903.497	80.192268
903.689	81.001289
903.881	81.875384
904.073	82.180040
904.265	82.290070
904.457	82.210766
904.649	82.288545
904.841	82.440028
905.033	82.960447
905.224	83.772888
905.416	83.946654
905.608	83.665653
905.800	83.228988
905.992	82.964725
906.183	82.827054
906.375	83.134445
906.567	83.683465
906.759	84.074495
906.950	84.606171
907.142	84.703198
907.334	84.090827
907.525	83.758842
907.717	83.969840
907.909	84.049939
908.100	83.266601
908.292	82.881458
908.483	82.355130
908.675	81.529965
908.866	80.936009
909.058	80.408392
909.249	79.542452
909.441	79.320686
909.632	79.058202
909.824	78.598598
910.015	78.294779
910.206	78.568418
910.398	78.534268
910.589	78.691214
910.780	79.169186
910.972	79.356961
911.163	79.385830
911.354	79.728447
911.546	79.852930
911.737	80.101352
911.928	80.525678
912.119	80.793598
912.310	81.262369
912.502	81.697481
912.693	81.682880
912.884	81.285457
913.075	80.944326
913.266	80.878466
913.457	81.384059
913.648	81.363797
913.839	80.841009
914.030	80.355805
914.221	80.213551
914.412	80.230734
914.603	80.470155
914.794	80.816438
914.985	81.720746
915.176	82.802190
915.367	83.157139
915.558	82.941427
915.749	83.364810
915.940	84.362318
916.130	85.526045
916.321	86.296452
916.512	86.234226
916.703	85.704974
916.893	85.506239
917.084	85.147192
917.275	84.880842
917.466	85.356751
917.656	86.169164
917.847	86.563078
918.038	85.878339
918.228	85.098003
918.419	84.918531
918.609	84.631718
918.800	84.956468
918.990	85.061481
919.181	85.061155
919.372	84.719383
919.562	83.815510
919.753	82.802422
919.943	81.977339
920.133	82.022967
920.324	82.302948
920.514	82.070817
920.705	82.178018
920.895	82.102858
921.085	81.987005
921.276	81.943907
921.466	81.809595
921.656	82.115202
921.847	81.810966
922.037	81.229985
922.227	80.799156
922.417	80.220785
922.608	80.040684
922.798	80.146071
922.988	80.180674
923.178	79.921738
923.368	79.431279
923.558	79.118638
923.748	78.710842
923.939	78.292719
924.129	77.652210
924.319	77.048414
924.509	77.159860
924.699	77.086387
924.889	76.969643
925.079	76.585233
925.269	76.470797
925.459	76.916427
925.648	77.546698
925.838	78.081732
926.028	78.904078
926.218	80.117318
926.408	81.313187
926.598	81.744218
926.788	82.238945
926.977	82.620493
927.167	83.567215
927.357	84.636318
927.547	85.225332
927.736	85.710372
927.926	86.150318
928.116	86.229153
928.305	86.252400
928.495	85.857833
928.685	85.311569
928.874	85.186072
929.064	85.238243
929.253	85.181821
929.443	85.119461
929.633	84.983066
929.822	84.433582
930.012	83.848643
930.201	83.911412
930.391	84.062225
930.580	84.388513
930.769	84.828912
930.959	84.479393
931.148	84.079079
931.338	83.749881
931.527	83.266911
931.716	82.981689
931.906	82.925788
932.095	82.752621
932.284	82.606949
932.474	82.680807
932.663	82.933682
932.852	83.288527
933.041	83.441624
933.230	84.088223
933.420	84.357786
933.609	84.690615
933.798	84.677365
933.987	84.473713
934.176	84.973408
934.365	85.112883
934.554	85.030940
934.743	84.818811
934.932	84.417494
935.121	84.330606
935.310	83.492712
935.499	82.971057
935.688	82.886241
935.877	83.652467
936.066	84.617884
936.255	85.140439
936.444	85.778622
936.633	86.120190
936.822	86.489631
937.010	87.209172
937.199	87.715416
937.388	88.423373
937.577	88.919021
937.766	88.636422
937.954	87.456809
938.143	86.598852
938.332	85.758284
938.520	85.039285
938.709	84.640712
938.898	83.904126
939.086	82.629825
939.275	81.673796
939.464	80.903307
939.652	80.258852
939.841	80.056190
940.029	79.789859
940.218	79.578691
940.406	79.428971
940.595	79.342008
940.783	79.276415
940.972	79.429289
941.160	79.648869
941.349	79.698391
941.537	79.591773
941.725	79.743614
941.914	79.564986
942.102	79.243178
942.290	78.752477
942.479	78.303702
942.667	77.989094
942.855	78.092072
943.043	78.037138
943.232	78.305552
943.420	78.941818
943.608	80.178461
943.796	80.615274
943.984	80.914277
944.172	81.418192
944.361	81.755549
944.549	81.920688
944.737	81.935204
944.925	81.953702
945.113	82.246085
945.301	82.676245
945.489	82.825563
945.677	82.138375
945.865	81.941407
946.053	81.943374
946.241	82.125779
946.429	82.425740
946.617	83.066507
946.805	83.920085
946.992	84.352680
947.180	84.456815
947.368	84.452050
947.556	84.453898
947.744	84.336274
947.931	83.957071
948.119	83.547993
948.307	83.451753
948.495	83.525027
948.682	83.552946
948.870	83.445779
949.058	83.648782
949.245	83.709546
949.433	83.876115
949.621	83.811923
949.808	83.988433
949.996	84.257416
950.183	85.290396
950.371	85.743051
950.558	85.884748
950.746	86.172646
950.933	85.908287
951.121	85.203032
951.308	85.034135
951.496	84.621136
951.683	84.446668
951.870	84.132546
952.058	84.299117
952.245	84.041603
952.433	83.947074
952.620	84.073859
952.807	83.768588
952.994	83.647600
953.182	83.622893
953.369	83.601750
953.556	83.630527
953.743	83.378091
953.931	83.458434
954.118	83.322410
954.305	83.069171
954.492	83.083567
954.679	82.889366
954.866	82.633311
955.053	82.339895
955.240	82.128083
955.427	81.929475
955.615	81.756943
955.802	81.667753
955.989	81.058459
956.175	80.205888
956.362	79.843256
956.549	80.055199
956.736	80.334372
956.923	79.946307
957.110	79.504956
957.297	78.834425
957.484	78.206891
957.671	78.073860
957.857	77.785304
958.044	77.843901
958.231	78.308816
958.418	78.415618
958.604	78.116370
958.791	78.143559
958.978	78.435395
959.165	79.014444
959.351	79.685066
959.538	80.127268
959.724	80.185111
959.911	80.961842
960.098	81.630864
960.284	82.012601
960.471	82.157647
960.657	82.050273
960.844	81.667771
961.030	82.044188
961.217	82.368859
961.403	82.951903
961.590	83.904422
961.776	84.113010
961.963	84.241829
962.149	85.259840
962.335	85.942161
962.522	86.534295
962.708	87.293892
962.894	88.023006
963.081	88.668337
963.267	89.012726
963.453	89.011812
963.639	89.103143
963.826	89.483558
964.012	88.931149
964.198	87.353599
964.384	86.055372
964.570	85.176425
964.756	83.650227
964.943	82.592303
965.129	81.624361
965.315	81.420363
965.501	81.266896
965.687	80.810140
965.873	80.404897
966.059	80.458108
966.245	80.758425
966.431	81.016586
966.617	82.018781
966.803	83.580743
966.989	84.471539
967.174	84.903234
967.360	84.552898
967.546	84.369241
967.732	83.919777
967.918	83.399393
968.104	83.406083
968.289	83.810151
968.475	84.440307
968.661	84.064220
968.847	83.668166
969.032	83.675324
969.218	83.858179
969.404	84.362518
969.589	84.640934
969.775	84.958454
969.961	85.973045
970.146	86.331651
970.332	85.840857
970.517	86.180866
970.703	86.540635
970.888	86.452868
971.074	86.434987
971.260	86.318630
971.445	86.389282
971.630	86.969477
971.816	87.543018
972.001	87.407866
972.187	86.942281
972.372	86.925554
972.557	86.171771
972.743	85.731521
972.928	85.603554
973.113	85.316145
973.299	85.433976
973.484	85.749122
973.669	85.426493
973.854	84.935566
974.040	85.224599
974.225	85.881774
974.410	87.051965
974.595	87.594068
974.780	87.660844
974.965	87.996242
975.151	88.790735
975.336	88.823657
975.521	87.943935
975.706	87.780334
975.891	87.408916
976.076	87.109574
976.261	86.997028
976.446	86.443983
976.631	86.021671
976.816	85.593981
977.001	85.558137
977.186	85.350003
977.370	85.255220
977.555	85.632789
977.740	85.770265
977.925	86.061332
978.110	85.037335
978.295	84.968225
978.479	84.712172
978.664	84.490011
978.849	84.524412
979.034	83.855461
979.218	83.017779
979.403	83.242526
979.588	83.527379
979.772	83.264278
979.957	82.549468
980.141	83.054779
980.326	82.600657
980.511	82.167805
980.695	82.090623
980.880	81.699574
981.064	81.318855
981.249	80.874642
981.433	79.923298
981.618	79.038620
981.802	78.501611
981.987	78.494596
982.171	78.829571
982.355	79.180760
982.540	79.662321
982.724	80.210941
982.908	81.298245
983.093	82.481890
983.277	84.394923
983.461	86.342751
983.646	87.563432
983.830	89.138729
984.014	90.422976
984.198	90.398613
984.382	90.300193
984.567	91.014032
984.751	91.479640
984.935	91.538778
985.119	91.123176
985.303	89.795560
985.487	87.904806
985.671	86.784517
985.855	85.803819
986.039	86.507368
986.223	87.456367
986.407	88.162302
986.591	87.436517
986.775	87.642984
986.959	87.296360
987.143	86.480121
987.327	86.627278
987.511	87.016027
987.695	87.333481
987.879	87.192901
988.062	86.065576
988.246	86.091663
988.430	86.180004
988.614	86.449090
988.797	85.774545
988.981	86.074762
989.165	87.653147
989.349	87.826112
989.532	88.624064
989.716	88.446654
989.900	88.440176
990.083	88.216549
990.267	87.082233
990.450	87.093931
990.634	87.806232
990.817	88.196078
991.001	88.184521
991.184	87.802052
991.368	88.444971
991.551	88.723827
991.735	89.804403
991.918	90.918917
992.102	92.258201
992.285	93.783331
992.469	94.243985
992.652	93.903321
992.835	94.694469
993.019	95.330631
993.202	96.134851
993.385	96.142575
993.568	95.868941
993.752	95.808764
993.935	94.608135
994.118	93.637071
994.301	92.270604
994.484	91.060976
994.668	90.674378
994.851	90.005853
995.034	89.300936
995.217	88.427978
995.400	87.750639
995.583	86.755171
995.766	86.355110
995.949	86.501269
996.132	86.689804
996.315	87.215398
996.498	87.518362
996.681	87.819606
996.864	86.593196
997.047	86.347355
997.230	85.760015
997.413	85.428880
997.596	86.032340
997.778	85.939821
997.961	86.063059
998.144	85.663927
998.327	84.831117
998.510	83.981113
998.692	83.825173
998.875	85.215098
999.058	85.389633
999.241	86.202334
999.423	86.598526
999.606	86.209823
999.789	86.430591
999.971	86.433463
1000.154	86.567769
1000.336	87.523354
1000.519	88.687526
1000.701	88.292004
1000.884	88.281160
1001.067	89.404846
1001.249	89.536782
1001.431	90.000622
1001.614	89.857903
1001.796	89.309102
1001.979	89.271471
1002.161	89.522470
1002.344	88.975369
1002.526	87.923464
1002.708	87.564101
1002.891	86.613859
1003.073	85.135228
1003.255	84.787278
1003.438	85.091388
1003.620	85.724516
1003.802	86.402301
1003.984	87.013702
1004.166	87.522506
1004.349	88.029145
1004.531	88.983698
1004.713	90.074465
1004.895	91.037555
1005.077	91.041409
1005.259	91.106087
1005.441	90.885541
1005.623	91.089198
1005.805	92.140612
1005.987	91.963649
1006.169	91.637744
1006.351	92.282406
1006.533	92.791208
1006.715	92.452991
1006.897	92.066613
1007.079	93.322541
1007.261	93.388114
1007.443	92.932686
1007.625	92.814766
1007.806	91.508107
1007.988	92.105397
1008.170	92.685977
1008.352	91.645285
1008.534	91.401136
1008.715	92.990362
1008.897	93.728903
1009.079	93.399217
1009.260	93.459403
1009.442	93.132575
1009.624	92.715254
1009.805	92.150158
1009.987	91.066319
1010.169	90.548302
1010.350	90.583765
1010.532	90.113934
1010.713	88.184661
1010.895	87.236507
1011.076	86.672604
1011.258	87.269142
1011.439	88.401115
1011.621	89.044758
1011.802	89.208822
1011.983	89.945137
1012.165	90.850792
1012.346	91.917251
1012.527	91.309643
1012.709	91.344439
1012.890	91.970601
1013.071	92.564540
1013.253	92.280703
1013.434	91.891280
1013.615	91.024203
1013.796	90.996807
1013.978	90.928683
1014.159	90.160495
1014.340	89.399416
1014.521	90.602245
1014.702	91.188511
1014.883	91.076071
1015.064	90.615268
1015.245	89.852870
1015.427	89.373218
1015.608	89.792901
1015.789	90.061953
1015.970	89.182100
1016.151	89.089447
1016.332	89.670590
1016.512	89.940572
1016.693	90.251025
1016.874	90.259835
1017.055	90.334117
1017.236	90.856924
1017.417	91.851773
1017.598	91.911855
1017.779	92.581079
1017.959	93.989509
1018.140	94.878084
1018.321	95.117747
1018.502	94.678362
1018.682	94.314822
1018.863	94.428141
1019.044	94.977863
1019.224	95.672851
1019.405	95.765119
1019.586	95.807188
1019.766	95.493644
1019.947	94.886214
1020.127	94.265362
1020.308	93.468890
1020.488	93.305679
1020.669	93.810725
1020.849	93.694974
1021.030	93.306221
1021.210	92.950964
1021.391	91.632538
1021.571	91.566358
1021.752	91.073726
1021.932	90.307941
1022.112	89.395274
1022.293	89.134470
1022.473	88.152028
1022.653	87.566715
1022.834	88.202937
1023.014	87.768018
1023.194	86.960079
1023.374	87.717328
1023.555	87.921139
1023.735	87.856589
1023.915	88.602533
1024.095	88.684608
1024.275	88.911383
1024.455	90.117456
1024.635	90.484535
1024.816	89.963704
1024.996	90.321199
1025.176	90.549394
1025.356	89.279454
1025.536	88.740423
1025.716	88.689010
1025.896	88.194886
1026.076	88.195779
1026.256	87.093419
1026.436	86.873988
1026.615	86.692750
1026.795	86.079401
1026.975	86.170303
1027.155	86.450444
1027.335	87.405263
1027.515	87.791625
1027.695	88.258896
1027.874	89.832201
1028.054	90.698008
1028.234	92.351924
1028.413	92.279106
1028.593	92.979183
1028.773	94.491909
1028.953	94.785199
1029.132	94.764389
1029.312	95.590273
1029.491	96.151651
1029.671	96.659989
1029.851	95.169872
1030.030	95.067677
1030.210	95.712927
1030.389	96.406813
1030.569	96.243510
1030.748	95.897761
1030.928	95.391491
1031.107	94.910271
1031.286	94.578853
1031.466	94.690915
1031.645	94.390473
1031.825	94.965509
1032.004	94.981123
1032.183	94.368288
1032.363	94.717243
1032.542	94.709511
1032.721	94.025493
1032.900	93.972533
1033.080	94.347825
1033.259	94.051465
1033.438	92.669802
1033.617	92.744987
1033.796	91.662499
1033.975	91.169592
1034.155	90.764632
1034.334	91.094106
1034.513	91.797374
1034.692	91.877380
1034.871	91.230704
1035.050	89.769052
1035.229	89.174943
1035.408	89.280559
1035.587	89.560037
1035.766	90.428162
1035.945	91.029755
1036.124	90.541757
1036.303	89.700710
1036.481	87.735316
1036.660	87.912776
1036.839	89.434022
1037.018	90.986513
1037.197	91.075890
1037.376	91.689982
1037.554	91.026895
1037.733	90.718336
1037.912	90.122232
1038.091	90.585709
1038.269	90.115898
1038.448	90.057568
1038.627	89.673807
1038.805	88.171701
1038.984	88.013289
1039.162	88.781719
1039.341	88.904816
1039.520	89.056397
1039.698	89.955700
1039.877	90.469902
1040.055	90.524694
1040.234	90.064830
1040.412	90.372606
1040.591	91.029711
1040.769	91.612077
1040.947	91.495563
1041.126	90.788557
1041.304	89.792481
1041.483	89.099119
1041.661	88.266165
1041.839	87.567604
1042.017	86.264645
1042.196	86.558056
1042.374	87.594330
1042.552	87.086794
1042.730	86.916217
1042.909	87.085900
1043.087	87.986375
1043.265	89.132476
1043.443	89.738866
1043.621	89.839194
1043.799	90.149391
1043.978	90.891137
1044.156	91.061647
1044.334	90.281702
1044.512	89.908696
1044.690	89.162612
1044.868	89.061829
1045.046	88.648288
1045.224	88.508608
1045.402	89.251699
1045.580	89.968868
1045.758	90.333608
1045.935	90.459528
1046.113	89.636524
1046.291	89.256384
1046.469	88.522725
1046.647	88.739826
1046.825	88.816771
1047.002	88.794916
1047.180	88.374979
1047.358	87.049500
1047.536	86.438468
1047.713	86.832848
1047.891	87.837893
1048.069	89.206821
1048.246	89.357820
1048.424	89.477866
1048.602	89.755383
1048.779	90.071270
1048.957	90.233631
1049.134	90.769860
1049.312	91.567205
1049.489	91.257571
1049.667	90.699200
1049.844	90.403766
1050.022	89.846537
1050.199	90.340864
1050.377	90.577070
1050.554	89.861765
1050.731	89.621667
1050.909	89.262311
1051.086	89.028582
1051.263	89.391317
1051.441	90.418727
1051.618	90.657779
1051.795	90.128529
1051.973	89.101775
1052.150	88.964227
1052.327	89.622450
1052.504	90.623351
1052.681	90.251497
1052.859	90.357889
1053.036	90.527948
1053.213	90.366192
1053.390	89.675082
1053.567	89.685957
1053.744	89.292912
1053.921	89.854796
1054.098	89.252555
1054.275	89.101564
1054.452	89.316907
1054.629	89.000955
1054.806	88.648934
1054.983	88.787892
1055.160	88.943178
1055.337	89.406990
1055.514	88.649486
1055.691	88.578024
1055.868	89.492965
1056.044	90.907261
1056.221	90.767987
1056.398	90.292985
1056.575	90.870872
1056.751	91.192832
1056.928	90.684142
1057.105	90.491251
1057.282	90.744006
1057.458	91.651413
1057.635	91.880491
1057.812	90.614799
1057.988	89.166747
1058.165	89.156445
1058.341	89.427486
1058.518	89.495412
1058.694	89.679252
1058.871	89.806227
1059.047	89.448645
1059.224	88.439365
1059.401	87.737980
1059.577	87.668724
1059.753	87.722202
1059.930	88.020416
1060.106	88.260329
1060.282	88.252137
1060.459	88.210296
1060.635	87.468236
1060.812	86.961061
1060.988	86.726592
1061.164	86.678760
1061.340	87.031457
1061.517	86.433574
1061.693	86.842020
1061.869	86.203370
1062.045	85.858723
1062.221	85.463800
1062.398	85.328596
1062.574	85.972197
1062.750	86.692763
1062.926	86.933370
1063.102	87.575831
1063.278	87.447329
1063.454	87.656929
1063.630	87.012158
1063.806	87.388429
1063.982	87.408423
1064.158	87.812750
1064.334	88.272625
1064.510	88.238368
1064.686	87.905136
1064.862	88.149530
1065.038	88.386197
1065.214	88.246629
1065.389	88.659225
1065.565	88.865364
1065.741	89.319232
1065.917	89.829665
1066.093	89.572807
1066.268	89.144932
1066.444	88.791309
1066.620	88.243002
1066.795	88.116740
1066.971	87.802390
1067.147	87.806597
1067.322	87.677554
1067.498	88.291550
1067.673	87.913830
1067.849	87.115519
1068.025	86.721780
1068.200	86.085131
1068.376	86.159329
1068.551	86.259716
1068.727	85.979096
1068.902	85.449755
1069.078	84.839058
1069.253	84.989624
1069.428	84.676414
1069.604	84.976691
1069.779	85.366587
1069.954	85.694292
1070.130	85.951649
1070.305	86.187262
1070.480	86.637798
1070.656	87.011087
1070.831	87.326718
1071.006	87.468825
1071.181	87.270179
1071.357	87.906954
1071.532	87.955901
1071.707	87.579934
1071.882	87.203764
1072.057	86.671419
1072.232	86.165088
1072.407	85.253782
1072.582	84.571583
1072.757	84.954828
1072.932	84.805225
1073.107	84.675702
1073.282	84.062109
1073.457	83.307477
1073.632	83.345001
1073.807	83.063439
1073.982	83.076416
1074.157	82.714808
1074.332	82.980395
1074.507	82.833746
1074.682	81.287615
1074.856	81.298662
1075.031	81.782041
1075.206	81.790448
1075.381	81.651000
1075.556	81.260637
1075.730	81.157573
1075.905	80.998700
1076.080	80.684984
1076.254	79.940294
1076.429	79.844927
1076.604	80.276419
1076.778	79.444769
1076.953	78.074939
1077.127	77.205169
1077.302	76.607885
1077.477	77.150795
1077.651	77.574419
1077.826	77.581416
1078.000	78.177339
1078.175	79.494995
1078.349	80.187087
1078.523	80.211853
1078.698	80.644634
1078.872	81.343989
1079.047	81.916578
1079.221	82.887761
1079.395	82.975646
1079.570	83.426887
1079.744	83.830140
1079.918	83.725328
1080.092	83.579458
1080.267	82.826058
1080.441	82.410457
1080.615	82.657759
1080.789	82.335352
1080.963	81.555360
1081.137	81.576717
1081.312	81.032120
1081.486	80.219205
1081.660	79.622901
1081.834	79.615347
1082.008	79.712773
1082.182	79.793263
1082.356	79.954043
1082.530	80.455764
1082.704	80.873650
1082.878	81.433695
1083.052	81.413461
1083.226	81.359191
1083.400	81.688746
1083.573	82.027271
1083.747	81.757168
1083.921	81.498935
1084.095	81.586129
1084.269	81.580494
1084.443	81.669506
1084.616	82.024891
1084.790	81.728248
1084.964	80.739158
1085.138	80.452085
1085.311	80.261807
1085.485	80.688864
1085.659	80.338331
1085.832	80.321259
1086.006	80.409326
1086.179	80.922435
1086.353	79.868444
1086.527	79.719329
1086.700	80.107885
1086.874	80.878044
1087.047	81.257693
1087.221	81.134562
1087.394	80.831675
1087.568	81.526448
1087.741	81.338107
1087.914	80.998560
1088.088	80.705457
1088.261	80.901230
1088.435	79.923898
1088.608	79.207487
1088.781	78.617316
1088.954	78.717658
1089.128	78.851625
1089.301	78.714533
1089.474	78.157101
1089.647	78.009853
1089.821	77.997974
1089.994	77.370872
1090.167	77.108298
1090.340	76.920411
1090.513	76.972733
1090.686	77.817955
1090.859	77.789635
1091.032	77.695019
1091.206	77.791068
1091.379	77.560275
1091.552	77.122704
1091.725	76.817276
1091.898	76.941645
1092.071	77.409595
1092.244	77.704239
1092.416	77.775161
1092.589	77.017583
1092.762	75.856570
1092.935	75.024003
1093.108	74.485350
1093.281	74.228900
1093.453	74.493235
1093.626	74.874369
1093.799	74.781258
1093.972	74.511397
1094.145	75.056665
1094.317	75.540628
1094.490	75.996920
1094.663	77.181479
1094.835	77.923765
1095.008	78.532733
1095.181	79.501542
1095.353	79.390395
1095.526	79.386382
1095.698	79.958293
1095.871	79.855954
1096.043	79.331841
1096.216	78.840156
1096.388	78.793677
1096.561	79.482611
1096.733	79.818205
1096.906	78.683334
1097.078	77.477331
1097.250	78.160130
1097.423	77.876894
1097.595	77.419561
1097.768	77.429605
1097.940	77.504475
1098.112	77.193684
1098.284	76.593240
1098.457	74.513775
1098.629	73.814626
1098.801	74.377146
1098.973	74.794385
1099.146	74.094161
1099.318	74.140115
1099.490	74.050719
1099.662	74.504279
1099.834	74.326551
1100.006	74.245976
1100.178	74.439494
1100.350	75.367972
1100.522	75.049867
1100.694	74.311103
1100.866	74.079133
1101.038	74.158017
1101.210	73.994346
1101.382	73.994611
1101.554	73.361499
1101.726	73.704875
1101.898	74.549947
1102.070	74.597942
1102.241	74.595922
1102.413	74.941983
1102.585	75.360987
1102.757	75.089652
1102.929	74.910671
1103.100	75.126246
1103.272	74.709174
1103.444	74.329712
1103.616	73.579836
1103.787	72.511879
1103.959	72.417297
1104.130	71.944357
1104.302	71.349225
1104.474	71.005630
1104.645	71.178851
1104.817	70.960431
1104.988	70.256600
1105.160	70.073404
1105.331	70.058973
1105.503	69.818845
1105.674	69.688165
1105.846	69.592132
1106.017	70.461608
1106.189	71.088040
1106.360	70.916719
1106.531	70.838232
1106.703	70.299961
1106.874	69.952941
1107.045	69.533655
1107.217	69.370582
1107.388	69.168153
1107.559	68.493136
1107.730	68.012881
1107.902	67.112176
1108.073	66.720973
1108.244	66.678078
1108.415	66.059267
1108.586	66.120364
1108.757	66.052711
1108.929	65.865219
1109.100	65.568671
1109.271	65.509392
1109.442	65.838559
1109.613	65.562611
1109.784	65.137731
1109.955	64.699209
1110.126	64.988673
1110.297	65.456649
1110.468	65.208662
1110.639	65.365274
1110.809	65.729752
1110.980	65.548611
1111.151	65.431471
1111.322	65.254116
1111.493	64.652544
1111.664	64.400061
1111.834	64.753403
1112.005	64.343866
1112.176	64.477933
1112.347	65.309297
1112.517	65.860036
1112.688	66.349631
1112.859	66.993798
1113.029	67.365157
1113.200	68.197612
1113.371	69.436298
1113.541	69.910480
1113.712	69.962363
1113.882	70.272479
1114.053	70.532504
1114.223	70.330976
1114.394	69.697657
1114.564	69.007066
1114.735	68.835073
1114.905	68.548710
1115.076	67.674952
1115.246	67.091790
1115.416	66.990953
1115.587	66.652956
1115.757	66.717182
1115.927	66.504596
1116.098	65.961176
1116.268	65.821357
1116.438	66.144031
1116.609	65.514180
1116.779	65.233499
1116.949	65.402896
1117.119	65.253387
1117.289	65.290799
1117.459	65.268834
1117.630	64.808744
1117.800	64.484348
1117.970	64.480297
1118.140	64.318040
1118.310	63.799213
1118.480	63.865676
1118.650	63.699096
1118.820	63.749985
1118.990	64.193108
1119.160	63.981238
1119.330	63.803573
1119.500	63.524799
1119.670	63.071170
1119.840	62.459856
1120.010	62.341490
1120.179	62.422040
1120.349	62.045921
1120.519	61.841678
1120.689	61.067587
1120.859	60.112634
1121.028	59.987760
1121.198	59.564214
1121.368	59.270397
1121.538	59.503371
1121.707	59.796399
1121.877	59.535363
1122.047	59.383117
1122.216	59.837837
1122.386	60.438048
1122.555	60.955896
1122.725	61.123513
1122.894	61.169690
1123.064	61.484999
1123.233	61.980045
1123.403	61.647270
1123.573	61.247917
1123.742	61.445670
1123.911	61.430880
1124.081	61.146331
1124.250	60.319246
1124.419	59.678279
1124.589	59.329764
1124.758	58.681287
1124.927	58.662611
1125.097	58.589259
1125.266	58.585150
1125.435	58.668646
1125.605	58.603669
1125.774	58.480666
1125.943	58.489831
1126.112	59.214237
1126.281	59.620717
1126.450	60.093023
1126.620	60.404418
1126.789	60.434603
1126.958	60.324480
1127.127	60.323084
1127.296	60.502355
1127.465	60.419834
1127.634	60.321245
1127.803	60.173509
1127.972	59.530435
1128.141	59.372972
1128.310	59.724940
1128.479	60.000112
1128.648	60.094519
1128.817	59.706566
1128.985	59.513770
1129.154	59.767817
1129.323	59.927378
1129.492	59.701364
1129.661	59.775454
1129.829	59.910143
1129.998	59.675573
1130.167	59.128728
1130.336	58.623811
1130.504	57.613563
1130.673	57.468514
1130.842	57.294338
1131.010	56.598791
1131.179	56.192908
1131.347	56.165043
1131.516	55.459058
1131.685	55.231345
1131.853	55.438879
1132.022	55.317526
1132.190	55.402651
1132.359	55.587222
1132.527	55.329079
1132.696	54.924151
1132.864	54.752457
1133.032	54.779869
1133.201	54.581462
1133.369	55.140394
1133.537	55.140085
1133.706	54.715766
1133.874	54.506170
1134.042	54.217858
1134.211	54.095079
1134.379	53.946549
1134.547	53.927981
1134.715	53.919728
1134.884	53.827296
1135.052	54.257018
1135.220	54.138043
1135.388	54.154432
1135.556	54.487419
1135.724	54.359508
1135.892	54.648691
1136.060	54.996088
1136.228	54.771173
1136.396	54.643467
1136.564	54.423501
1136.732	54.126178
1136.900	54.063875
1137.068	53.982303
1137.236	53.737921
1137.404	53.143937
1137.572	52.900220
1137.740	52.729997
1137.908	52.516920
1138.076	52.683561
1138.243	52.662433
1138.411	52.902693
1138.579	53.255021
1138.747	52.837314
1138.914	52.379997
1139.082	52.180189
1139.250	52.472219
1139.417	52.697837
1139.585	51.913977
1139.753	51.440827
1139.920	51.395447
1140.088	51.641960
1140.256	51.635579
1140.423	51.191553
1140.591	50.759114
1140.758	51.022246
1140.926	51.469173
1141.093	51.835685
1141.261	52.038159
1141.428	52.534455
1141.596	52.957493
1141.763	53.079869
1141.930	52.997620
1142.098	52.454269
1142.265	52.371498
1142.432	52.885503
1142.600	52.911431
1142.767	52.493871
1142.934	51.851333
1143.102	51.631013
1143.269	51.583088
1143.436	51.233197
1143.603	51.265654
1143.771	51.305251
1143.938	51.531161
1144.105	51.669801
1144.272	51.576478
1144.439	51.252114
1144.606	51.151372
1144.773	50.851464
1144.940	49.917783
1145.107	49.710280
1145.274	49.769595
1145.441	49.934838
1145.608	49.878193
1145.775	49.887341
1145.942	49.756790
1146.109	49.810484
1146.276	49.767967
1146.443	49.647501
1146.610	49.835332
1146.776	50.173811
1146.943	50.148745
1147.110	49.950319
1147.277	49.538028
1147.444	49.136655
1147.610	49.135810
1147.777	49.113922
1147.944	48.691131
1148.110	48.699507
1148.277	48.579978
1148.444	47.928817
1148.610	47.835330
1148.777	47.716944
1148.944	47.527228
1149.110	47.334653
1149.277	47.281224
1149.443	46.738462
1149.610	46.032055
1149.776	45.530983
1149.943	45.102325
1150.109	44.986536
1150.276	45.806844
1150.442	46.431114
1150.608	46.357794
1150.775	47.073768
1150.941	47.147180
1151.107	47.170283
1151.274	47.466174
1151.440	47.675143
1151.606	48.020354
1151.773	48.154278
1151.939	47.964587
1152.105	47.561368
1152.271	46.883949
1152.438	46.650090
1152.604	45.734980
1152.770	45.386567
1152.936	44.973861
1153.102	44.511740
1153.268	44.648471
1153.434	44.702685
1153.600	44.674137
1153.766	44.961410
1153.932	44.809487
1154.098	45.013140
1154.264	45.070771
1154.430	44.843148
1154.596	44.600225
1154.762	44.931505
1154.928	45.171092
1155.094	45.240568
1155.260	45.248949
1155.426	45.098584
1155.591	44.632934
1155.757	44.378044
1155.923	43.790457
1156.089	43.923045
1156.255	44.312016
1156.420	44.934804
1156.586	44.850033
1156.752	44.664750
1156.917	44.233495
1157.083	43.305667
1157.249	42.913187
1157.414	42.442425
1157.580	42.304767
1157.745	42.758945
1157.911	42.583052
1158.076	42.233007
1158.242	42.003398
1158.407	41.725455
1158.573	41.685066
1158.738	41.899469
1158.904	42.249914
1159.069	42.297813
1159.235	42.857174
1159.400	42.968448
1159.565	42.486552
1159.731	42.613838
1159.896	42.674889
1160.061	42.054959
1160.227	41.998212
1160.392	42.070688
1160.557	41.728801
1160.722	42.068670
1160.888	42.339476
1161.053	42.215766
1161.218	42.487555
1161.383	42.840361
1161.548	42.606397
1161.713	42.864953
1161.878	43.134373
1162.043	43.618641
1162.208	43.954596
1162.374	43.866542
1162.539	43.382466
1162.704	43.678061
1162.869	43.832206
1163.033	43.567283
1163.198	43.588846
1163.363	43.368262
1163.528	42.968060
1163.693	42.899547
1163.858	42.388742
1164.023	42.286480
1164.188	42.990758
1164.353	43.588070
1164.517	43.136055
1164.682	43.122770
1164.847	42.859611
1165.011	42.329515
1165.176	42.511225
1165.341	42.910712
1165.506	43.260132
1165.670	43.698872
1165.835	43.393785
1166.000	42.582534
1166.164	42.056586
1166.329	42.257166
1166.493	42.255848
1166.658	42.501930
1166.822	42.806605
1166.987	42.821676
1167.151	42.435710
1167.316	41.758134
1167.480	41.256208
1167.645	41.307361
1167.809	41.010165
1167.973	40.644968
1168.138	40.546287
1168.302	40.443715
1168.466	40.140757
1168.631	40.273795
1168.795	40.383778
1168.959	40.685562
1169.124	41.149207
1169.288	41.145913
1169.452	40.780210
1169.616	40.743757
1169.780	40.957244
1169.944	40.708113
1170.109	40.325184
1170.273	40.320711
1170.437	39.552836
1170.601	38.744284
1170.765	38.152794
1170.929	37.666994
1171.093	37.477380
1171.257	37.081226
1171.421	36.833385
1171.585	37.204478
1171.749	37.841508
1171.913	38.046618
1172.077	38.288208
1172.240	39.012439
1172.404	39.636090
1172.568	40.419273
1172.732	40.657314
1172.896	41.046164
1173.060	42.170328
1173.223	43.285971
1173.387	43.216802
1173.551	42.654438
1173.715	42.715366
1173.878	42.819087
1174.042	42.585549
1174.206	42.365228
1174.369	41.677153
1174.533	41.597623
1174.696	41.270235
1174.860	40.582228
1175.023	40.362077
1175.187	40.041537
1175.351	39.791475
1175.514	39.799650
1175.677	39.644753
1175.841	39.310601
1176.004	39.470079
1176.168	39.984346
1176.331	40.333004
1176.495	40.541038
1176.658	40.937111
1176.821	40.851336
1176.985	40.697562
1177.148	41.105090
1177.311	40.878122
1177.474	40.427667
1177.638	40.232253
1177.801	39.902409
1177.964	39.542720
1178.127	39.756624
1178.291	39.675080
1178.454	39.349892
1178.617	39.252127
1178.780	39.516091
1178.943	38.977107
1179.106	39.100771
1179.269	39.214112
1179.432	39.655875
1179.595	40.041105
1179.758	40.019718
1179.921	39.871791
1180.084	40.529161
1180.247	40.554859
1180.410	40.570934
1180.573	40.938918
1180.736	41.080666
1180.899	40.858705
1181.061	40.877486
1181.224	40.704619
1181.387	40.480065
1181.550	40.350529
1181.713	39.971231
1181.875	39.551757
1182.038	39.352442
1182.201	39.177811
1182.363	38.304522
1182.526	38.418173
1182.689	38.779014
1182.851	38.977800
1183.014	39.099741
1183.177	39.277131
1183.339	39.563244
1183.502	39.957114
1183.664	39.996774
1183.827	40.260805
1183.989	40.279902
1184.152	40.877628
1184.314	40.864843
1184.477	40.688599
1184.639	40.657762
1184.801	40.578215
1184.964	40.594167
1185.126	40.565701
1185.288	40.627859
1185.451	40.914177
1185.613	40.990474
1185.775	41.036422
1185.938	40.905577
1186.100	41.231777
1186.262	41.137111
1186.424	41.346274
1186.586	41.940619
1186.749	41.456022
1186.911	41.420211
1187.073	41.390836
1187.235	40.853224
1187.397	40.891765
1187.559	41.302324
1187.721	41.508124
1187.883	41.903240
1188.045	42.130744
1188.207	42.370382
1188.369	42.156792
1188.531	42.593111
1188.693	42.933985
1188.855	42.190936
1189.017	41.641073
1189.179	41.320842
1189.341	41.014519
1189.502	41.286390
1189.664	40.688538
1189.826	40.653109
1189.988	40.687772
1190.150	40.897307
1190.311	41.242476
1190.473	40.991723
1190.635	41.829541
1190.796	42.480407
1190.958	42.760421
1191.120	42.907426
1191.281	42.622080
1191.443	42.493081
1191.604	42.562094
1191.766	42.643389
1191.928	42.430035
1192.089	42.741677
1192.251	42.987007
1192.412	42.815203
1192.574	43.139436
1192.735	43.520855
1192.896	43.458061
1193.058	43.799300
1193.219	44.061701
1193.381	44.235334
1193.542	44.192630
1193.703	44.570574
1193.865	44.402931
1194.026	44.102947
1194.187	43.950792
1194.349	43.356897
1194.510	42.932036
1194.671	43.333030
1194.832	43.404987
1194.993	43.858203
1195.155	43.886563
1195.316	43.756923
1195.477	43.802748
1195.638	43.495624
1195.799	43.662571
1195.960	43.804191
1196.121	44.178661
1196.282	44.646734
1196.443	44.646870
1196.604	44.726264
1196.765	44.833146
1196.926	45.091763
1197.087	45.080365
1197.248	44.936391
1197.409	45.146344
1197.570	45.501373
1197.730	45.832405
1197.891	45.949402
1198.052	45.513671
1198.213	45.614533
1198.374	45.988066
1198.534	45.614405
1198.695	45.405520
1198.856	45.575884
1199.016	45.456188
1199.177	45.140353
1199.338	44.887672
1199.498	44.832671
1199.659	44.791602
1199.820	45.203436
1199.980	45.029248
1200.141	44.685786
1200.301	44.931918
1200.462	44.523866
1200.622	44.410017
1200.783	44.592205
1200.943	44.978208
1201.104	45.220778
1201.264	45.610604
1201.424	45.608328
1201.585	45.437412
1201.745	45.913268
1201.906	45.398854
1202.066	45.230963
1202.226	46.013867
1202.386	46.735523
1202.547	47.158967
1202.707	47.501570
1202.867	47.300762
1203.027	46.739633
1203.188	46.576539
1203.348	46.688749
1203.508	46.222523
1203.668	46.514552
1203.828	46.704788
1203.988	46.776091
1204.148	46.123814
1204.308	45.596930
1204.468	45.060502
1204.628	44.638772
1204.788	44.577089
1204.948	44.742905
1205.108	45.093526
1205.268	45.416685
1205.428	45.422259
1205.588	45.414552
1205.748	45.543332
1205.908	46.129821
1206.068	46.300006
1206.228	46.443185
1206.387	46.922179
1206.547	46.994926
1206.707	47.024980
1206.867	46.359448
1207.026	46.094937
1207.186	46.148207
1207.346	45.827879
1207.505	45.299251
1207.665	44.675610
1207.825	44.686310
1207.984	44.820284
1208.144	44.810436
1208.303	45.129416
1208.463	45.501327
1208.622	45.929096
1208.782	45.776772
1208.941	46.531536
1209.101	47.093771
1209.260	47.676329
1209.420	48.126585
1209.579	48.252675
1209.739	48.035190
1209.898	47.922670
1210.057	47.779521
1210.217	47.637857
1210.376	48.035009
1210.535	48.488398
1210.694	47.822051
1210.854	47.589570
1211.013	47.417953
1211.172	47.151748
1211.331	47.534570
1211.490	47.847401
1211.650	48.344545
1211.809	48.816257
1211.968	49.257346
1212.127	49.196326
1212.286	49.482742
1212.445	49.993488
1212.604	50.478256
1212.763	50.364792
1212.922	50.887901
1213.081	51.177662
1213.240	51.480044
1213.399	51.631947
1213.558	52.068160
1213.717	52.480066
1213.876	53.032127
1214.035	52.940354
1214.194	52.559043
1214.352	52.009724
1214.511	52.128007
1214.670	51.949316
1214.829	51.563545
1214.988	51.609251
1215.146	51.657070
1215.305	51.403862
1215.464	51.326438
1215.622	51.052886
1215.781	51.612338
1215.940	51.972184
1216.098	52.188234
1216.257	52.210925
1216.415	52.545765
1216.574	53.048094
1216.732	53.408356
1216.891	53.423013
1217.049	53.213030
1217.208	52.844940
1217.366	52.533532
1217.525	51.613360
1217.683	51.820936
1217.842	51.874293
1218.000	52.042639
1218.158	52.064173
1218.317	51.828881
1218.475	51.871099
1218.633	52.182008
1218.792	52.724880
1218.950	53.372915
1219.108	53.777827
1219.266	54.434238
1219.425	54.585713
1219.583	55.210973
1219.741	55.676165
1219.899	55.994764
1220.057	56.082945
1220.215	55.329136
1220.373	54.394395
1220.531	53.697013
1220.689	52.817185
1220.847	52.154327
1221.005	51.714342
1221.163	51.557041
1221.322	51.419342
1221.479	51.179388
1221.637	50.777747
1221.795	50.478332
1221.953	50.609993
1222.111	51.189779
1222.269	51.600659
1222.427	52.537762
1222.584	53.079457
1222.742	53.496312
1222.900	53.531101
1223.058	53.114257
1223.216	53.139467
1223.373	52.892957
1223.531	53.067480
1223.689	53.531719
1223.846	53.645848
1224.004	53.536843
1224.162	53.359323
1224.319	53.571817
1224.477	53.348742
1224.634	53.369207
1224.792	54.241658
1224.949	54.517239
1225.107	55.056073
1225.264	55.251075
1225.422	55.186397
1225.579	55.480013
1225.737	56.091611
1225.894	55.874390
1226.052	55.895843
1226.209	56.502099
1226.366	57.066985
1226.523	57.267429
1226.681	57.701832
1226.838	58.086113
1226.995	58.387984
1227.153	59.035912
1227.310	59.407518
1227.467	58.760958
1227.624	58.362653
1227.781	58.268195
1227.938	58.098564
1228.096	57.436564
1228.253	56.739704
1228.410	55.877477
1228.567	55.351812
1228.724	55.052705
1228.881	54.430225
1229.038	53.859591
1229.195	54.150812
1229.352	54.464758
1229.509	54.453922
1229.666	54.375725
1229.823	54.134615
1229.980	54.513441
1230.136	54.608447
1230.293	54.304904
1230.450	54.363748
1230.607	54.516640
1230.764	54.760759
1230.921	54.549871
1231.077	54.211690
1231.234	54.000319
1231.391	53.647463
1231.547	53.847385
1231.704	53.482192
1231.861	53.744320
1232.018	54.404870
1232.174	54.487097
1232.331	54.813053
1232.487	55.106493
1232.644	55.309131
1232.800	55.566520
1232.957	55.797541
1233.113	56.341126
1233.270	57.052820
1233.426	57.301376
1233.583	57.051653
1233.739	56.873380
1233.896	56.979117
1234.052	56.741598
1234.208	56.291667
1234.365	55.792906
1234.521	55.914408
1234.677	55.835217
1234.834	55.490152
1234.990	55.072169
1235.146	55.445460
1235.302	55.703842
1235.459	55.607437
1235.615	55.159316
1235.771	55.479520
1235.927	55.814093
1236.083	56.122082
1236.239	56.521945
1236.396	56.841056
1236.552	56.931035
1236.708	57.140216
1236.864	57.009872
1237.020	56.970515
1237.176	57.033365
1237.332	57.326206
1237.488	57.052163
1237.644	56.593672
1237.799	56.944850
1237.955	56.825850
1238.111	56.746548
1238.267	57.085113
1238.423	57.026111
1238.579	56.584379
1238.734	56.385943
1238.890	56.635587
1239.046	56.820495
1239.202	57.376995
1239.357	58.471152
1239.513	58.683376
1239.669	58.433962
1239.824	58.542604
1239.980	58.535518
1240.136	58.699242
1240.291	58.979015
1240.447	59.581572
1240.603	59.756976
1240.758	59.654218
1240.914	59.047277
1241.069	58.379658
1241.225	58.452430
1241.380	59.155647
1241.535	59.714479
1241.691	59.783314
1241.846	59.727627
1242.002	60.043308
1242.157	59.799289
1242.313	59.385670
1242.468	59.453185
1242.623	59.846168
1242.778	59.972656
1242.934	59.599935
1243.089	58.718761
1243.244	58.057264
1243.399	58.130354
1243.554	58.438720
1243.710	58.769797
1243.865	58.981601
1244.020	59.417461
1244.175	59.462701
1244.330	59.154782
1244.485	58.592273
1244.640	58.441168
1244.795	59.245203
1244.950	59.910229
1245.105	60.515816
1245.260	60.601930
1245.415	59.919927
1245.570	59.648963
1245.725	59.532217
1245.880	60.015543
1246.035	60.158640
1246.190	60.307833
1246.345	60.332034
1246.499	59.845746
1246.654	59.372673
1246.809	58.841022
1246.964	58.234258
1247.118	58.804135
1247.273	59.570003
1247.428	59.941896
1247.583	59.985733
1247.737	60.179772
1247.892	60.667365
1248.047	60.974085
1248.201	61.081900
1248.356	61.159705
1248.510	61.217192
1248.665	61.777423
1248.819	61.343939
1248.974	60.978239
1249.128	60.405779
1249.283	60.305989
1249.437	61.254086
1249.592	61.894429
1249.746	61.983884
1249.900	62.323639
1250.055	62.717772
1250.209	62.635208
1250.363	62.708900
1250.518	62.921488
1250.672	63.046269
1250.826	63.917616
1250.981	64.498669
1251.135	63.629172
1251.289	63.131892
1251.443	63.780633
1251.597	63.724421
1251.751	63.520756
1251.906	63.855047
1252.060	64.395428
1252.214	65.073449
1252.368	65.246279
1252.522	64.875234
1252.676	63.950287
1252.830	63.845319
1252.984	63.887698
1253.138	63.901672
1253.292	64.399942
1253.446	64.554765
1253.600	65.029956
1253.754	64.923398
1253.907	63.795425
1254.061	63.163696
1254.215	62.474857
1254.369	62.704429
1254.523	63.219808
1254.677	63.169291
1254.830	62.817925
1254.984	62.728670
1255.138	62.948373
1255.292	62.865925
1255.445	63.112183
1255.599	63.710297
1255.752	64.455755
1255.906	65.040225
1256.060	65.270207
1256.213	64.795893
1256.367	64.972709
1256.520	65.104367
1256.674	65.227667
1256.827	65.837791
1256.981	65.431056
1257.134	64.232018
1257.288	63.859971
1257.441	62.982358
1257.594	62.499209
1257.748	62.031037
1257.901	62.129755
1258.055	62.290233
1258.208	62.398032
1258.361	62.371489
1258.515	61.779602
1258.668	62.287776
1258.821	62.831175
1258.974	62.962831
1259.127	63.720391
1259.281	64.800178
1259.434	65.834256
1259.587	66.234624
1259.740	66.455251
1259.893	66.130816
1260.046	65.428693
1260.199	65.129302
1260.352	64.799519
1260.505	64.513989
1260.658	65.439180
1260.811	66.126437
1260.964	66.498559
1261.117	65.733796
1261.270	65.347920
1261.423	64.733323
1261.576	64.837287
1261.729	65.275393
1261.882	66.135522
1262.035	66.532230
1262.188	66.838390
1262.340	66.119600
1262.493	65.586986
1262.646	65.484696
1262.798	66.699193
1262.951	67.676635
1263.104	69.068396
1263.257	70.208879
1263.409	70.216061
1263.562	68.906037
1263.714	69.123798
1263.867	69.852708
1264.020	71.602159
1264.172	72.661151
1264.325	72.600672
1264.477	71.849939
1264.630	71.286549
1264.782	70.960403
1264.935	70.514028
1265.087	70.714558
1265.240	71.435310
1265.392	70.950375
1265.544	70.614310
1265.697	69.357610
1265.849	68.712119
1266.001	68.248022
1266.154	68.167258
1266.306	68.823285
1266.458	68.484631
1266.610	68.208306
1266.762	68.738304
1266.915	68.650792
1267.067	67.897648
1267.219	68.220148
1267.371	68.996824
1267.523	69.775081
1267.675	70.584761
1267.828	70.878722
1267.979	70.831675
1268.132	70.666717
1268.284	71.064597
1268.436	70.880959
1268.588	71.345738
1268.740	72.419189
1268.891	72.578571
1269.043	72.368528
1269.195	71.350490
1269.347	70.667142
1269.499	71.031779
1269.651	70.792590
1269.803	71.831276
1269.955	71.338109
1270.106	70.785872
1270.258	71.230514
1270.410	71.658674
1270.562	71.282504
1270.713	70.942821
1270.865	71.345547
1271.017	72.064256
1271.168	71.648911
1271.320	71.037238
1271.471	69.910732
1271.623	69.829915
1271.775	70.664790
1271.926	70.429025
1272.078	69.374297
1272.229	69.188518
1272.381	69.752517
1272.532	69.949400
1272.684	69.217867
1272.835	68.921491
1272.986	69.406764
1273.138	69.405247
1273.289	69.830844
1273.440	69.806307
1273.592	69.985205
1273.743	71.646168
1273.894	72.752916
1274.046	73.705203
1274.197	73.466043
1274.348	74.107396
1274.500	75.168775
1274.651	75.909872
1274.802	77.650022
>>>>>>>>>> END of Data <<<<<<<<<<
