Date	2025年07月03日木曜日 09時53分59秒
Spectrometers	SR401765
ダーク	使用
リファレンス	使用
積分時間[msec]	300
平均回数	1
ｽﾑｰｼﾞﾝｸﾞ	5
Electrical Dark	USE
ピクセル数	3648
計測モード	反射率
保存開始波長[nm]	598.495
保存終了波長[nm]	1274.802
保存ﾋﾟｯﾁ波長[nm]	全波長

>>>>>>>>>> Data Start <<<<<<<<<<<<
598.495	27500.502133
598.713	27500.502133
598.931	27500.502133
599.148	27500.502133
599.366	0.000000
599.584	0.000000
599.802	2452.260231
600.020	111.690596
600.238	36.265847
600.455	152.601398
600.673	52.329216
600.891	23.405153
601.109	25.161525
601.326	25.840013
601.544	25.420437
601.762	25.363606
601.979	25.366092
602.197	25.434778
602.415	25.751966
602.632	25.962392
602.850	26.013313
603.067	26.214891
603.285	26.553894
603.502	26.789971
603.720	26.877306
603.938	27.129941
604.155	27.415807
604.372	27.703627
604.590	27.905148
604.807	28.060373
605.025	28.086539
605.242	28.164709
605.460	28.220990
605.677	28.188765
605.894	28.189989
606.112	28.409811
606.329	28.521885
606.546	28.681270
606.764	28.873534
606.981	29.030231
607.198	29.176306
607.415	29.440384
607.633	29.752750
607.850	30.232459
608.067	30.556452
608.284	30.563419
608.501	30.565515
608.718	30.772137
608.935	30.930078
609.153	31.161908
609.370	31.503046
609.587	31.614684
609.804	31.754389
610.021	31.694850
610.238	31.486753
610.455	31.404161
610.672	31.633963
610.889	31.824179
611.106	31.938065
611.323	32.037764
611.540	32.219361
611.756	32.328874
611.973	32.418374
612.190	32.414561
612.407	32.787437
612.624	33.213660
612.841	33.683617
613.057	33.950047
613.274	34.128804
613.491	34.406930
613.708	34.820113
613.925	35.008309
614.141	35.116952
614.358	35.542310
614.575	36.051800
614.791	36.214511
615.008	36.264883
615.225	36.448105
615.441	36.780825
615.658	37.089147
615.874	37.208315
616.091	37.139464
616.307	37.175393
616.524	37.431454
616.740	37.485269
616.957	37.533774
617.173	37.762297
617.390	38.114438
617.606	38.207001
617.823	38.440004
618.039	38.718113
618.256	39.123612
618.472	39.589452
618.688	39.893051
618.905	39.987894
619.121	40.245466
619.337	40.482385
619.554	40.750109
619.770	40.990235
619.986	41.174431
620.202	41.238063
620.419	41.496957
620.635	41.760328
620.851	42.007664
621.067	42.335396
621.283	42.660802
621.499	42.925584
621.716	43.060143
621.932	43.219072
622.148	43.330031
622.364	43.505896
622.580	43.706775
622.796	43.738806
623.012	43.762952
623.228	43.818957
623.444	43.932575
623.660	44.183279
623.876	44.290101
624.092	44.573030
624.308	45.023174
624.524	45.365661
624.740	45.720234
624.955	46.084856
625.171	46.346411
625.387	46.426350
625.603	46.672951
625.819	46.893907
626.034	46.918977
626.250	47.099275
626.466	47.332323
626.682	47.218750
626.897	47.163285
627.113	47.097649
627.329	47.121826
627.544	47.316573
627.760	47.652761
627.976	47.801539
628.191	47.946589
628.407	48.360730
628.623	48.719453
628.838	48.931182
629.054	49.286680
629.269	49.705111
629.485	50.187916
629.700	50.659989
629.916	50.963513
630.131	51.106184
630.347	51.339677
630.562	51.533467
630.777	51.627244
630.993	51.807890
631.208	51.848881
631.424	51.906774
631.639	52.011519
631.854	52.028053
632.070	52.014176
632.285	52.107794
632.500	52.289354
632.715	52.429031
632.931	52.588467
633.146	52.779618
633.361	52.955286
633.576	53.377005
633.791	53.676867
634.007	53.887299
634.222	54.021483
634.437	54.017566
634.652	54.018001
634.867	54.095852
635.082	54.402562
635.297	54.801482
635.512	55.190717
635.727	55.502830
635.942	55.627017
636.157	55.810696
636.372	55.984664
636.587	56.166360
636.802	56.393176
637.017	56.571537
637.232	56.794027
637.447	56.966287
637.662	57.088117
637.876	57.156298
638.091	57.105874
638.306	57.107321
638.521	57.174293
638.736	57.477034
638.951	57.851975
639.165	58.214646
639.380	58.650001
639.595	58.847870
639.809	58.863976
640.024	58.976065
640.239	59.122642
640.453	59.375325
640.668	59.763444
640.883	60.119229
641.097	60.222306
641.312	60.290053
641.526	60.377320
641.741	60.389359
641.955	60.526389
642.170	60.511785
642.384	60.437858
642.599	60.346550
642.813	60.432182
643.028	60.555148
643.242	60.585940
643.457	60.647286
643.671	60.799783
643.885	60.931718
644.100	61.038221
644.314	61.255248
644.528	61.665999
644.743	61.854754
644.957	62.075113
645.171	62.313094
645.386	62.332777
645.600	62.389874
645.814	62.461217
646.028	62.636697
646.242	62.758154
646.457	62.779263
646.671	62.655469
646.885	62.756345
647.099	63.146364
647.313	63.337048
647.527	63.384192
647.741	63.660616
647.955	63.899166
648.169	64.125581
648.383	64.190258
648.597	64.335036
648.811	64.621918
649.025	64.878807
649.239	64.878915
649.453	64.908052
649.667	64.974344
649.881	65.297241
650.095	65.527710
650.309	65.605324
650.523	65.675572
650.737	65.887020
650.950	66.182814
651.164	66.364294
651.378	66.601491
651.592	66.657498
651.805	66.513176
652.019	66.672488
652.233	66.764370
652.447	66.736736
652.660	66.720904
652.874	66.842624
653.088	67.021195
653.301	66.906125
653.515	66.866226
653.728	66.778380
653.942	66.739035
654.156	66.824463
654.369	66.911217
654.583	66.884275
654.796	67.082931
655.010	67.520103
655.223	67.835235
655.437	67.804523
655.650	67.894522
655.863	67.981698
656.077	68.202250
656.290	68.531988
656.504	68.823613
656.717	68.880450
656.930	68.915399
657.144	68.920449
657.357	69.042899
657.570	69.228355
657.783	69.374336
657.997	69.432593
658.210	69.507527
658.423	69.549822
658.636	69.637707
658.849	69.684511
659.063	69.831770
659.276	70.063868
659.489	70.183727
659.702	70.232532
659.915	70.217638
660.128	70.214033
660.341	70.476438
660.554	70.840555
660.767	71.025432
660.980	71.324008
661.193	71.670465
661.406	72.041015
661.619	72.369655
661.832	72.509927
662.045	72.414002
662.258	72.350410
662.471	72.531063
662.684	72.512289
662.897	72.332597
663.110	72.139299
663.322	71.791022
663.535	71.370799
663.748	70.984147
663.961	70.732865
664.174	70.630057
664.386	70.550320
664.599	70.476886
664.812	70.313405
665.024	70.139933
665.237	70.085867
665.450	70.275591
665.662	70.422921
665.875	70.647050
666.088	70.801557
666.300	70.829717
666.513	70.933579
666.725	71.077242
666.938	71.134619
667.150	71.182944
667.363	71.416982
667.575	71.691776
667.788	71.800494
668.000	71.978228
668.213	72.116805
668.425	72.197565
668.638	72.185564
668.850	72.043974
669.062	71.919478
669.275	72.047408
669.487	72.319291
669.699	72.610434
669.912	72.715037
670.124	72.774850
670.336	72.765119
670.548	72.766473
670.761	72.638223
670.973	72.589017
671.185	72.741242
671.397	73.013421
671.609	73.021979
671.822	72.843290
672.034	72.657041
672.246	72.647161
672.458	72.879867
672.670	73.320323
672.882	73.572256
673.094	73.795536
673.306	73.951033
673.518	73.997655
673.730	74.048484
673.942	74.196171
674.154	74.398733
674.366	74.643755
674.578	74.858154
674.790	74.813867
675.002	74.621234
675.214	74.628265
675.425	74.738936
675.637	74.779189
675.849	74.762638
676.061	74.464967
676.273	74.178527
676.484	74.083527
676.696	73.966926
676.908	73.968937
677.120	74.147050
677.331	74.243210
677.543	74.259607
677.755	74.326771
677.966	74.467438
678.178	74.579098
678.389	74.951004
678.601	75.325732
678.813	75.589891
679.024	75.739192
679.236	75.658568
679.447	75.396825
679.659	75.029168
679.870	74.696159
680.082	74.438174
680.293	74.244843
680.505	74.082941
680.716	74.121050
680.927	74.095704
681.139	73.907085
681.350	73.870357
681.562	74.009701
681.773	74.275680
681.984	74.751971
682.196	75.077985
682.407	75.263228
682.618	75.295061
682.829	75.348030
683.041	75.365441
683.252	75.784148
683.463	76.235448
683.674	76.355497
683.885	76.492916
684.097	76.430461
684.308	76.246467
684.519	76.075124
684.730	75.898468
684.941	75.792398
685.152	75.825394
685.363	75.854733
685.574	75.535770
685.785	75.246865
685.996	75.167660
686.207	74.813103
686.418	74.721041
686.629	74.893160
686.840	75.131379
687.051	75.284153
687.262	75.389144
687.473	75.394977
687.684	75.209404
687.894	75.066343
688.105	75.118414
688.316	75.281556
688.527	75.570691
688.738	75.718306
688.948	75.661279
689.159	75.715755
689.370	75.862449
689.580	76.048865
689.791	76.215034
690.002	76.314954
690.212	76.370240
690.423	76.273259
690.634	76.092613
690.844	76.009543
691.055	76.059426
691.266	76.206970
691.476	76.263477
691.687	76.295380
691.897	76.431306
692.108	76.620216
692.318	76.750224
692.529	76.821329
692.739	76.894600
692.949	77.017660
693.160	77.178007
693.370	77.478484
693.581	77.874335
693.791	78.272246
694.001	78.514001
694.212	78.506696
694.422	78.295523
694.632	78.043759
694.843	77.787935
695.053	77.818010
695.263	77.845158
695.473	77.839742
695.683	77.582666
695.894	77.038728
696.104	76.581852
696.314	76.348750
696.524	76.309323
696.734	76.508791
696.944	76.991945
697.154	77.397351
697.365	77.553191
697.575	77.572383
697.785	77.622906
697.995	77.617426
698.205	77.672077
698.415	77.703478
698.625	77.605837
698.834	77.474990
699.044	77.348685
699.254	77.164669
699.464	77.076688
699.674	76.970672
699.884	76.775849
700.094	76.374635
700.304	76.042360
700.513	75.737463
700.723	75.411788
700.933	75.286804
701.143	75.358813
701.353	75.408552
701.562	75.378293
701.772	75.371721
701.982	75.534751
702.191	75.918939
702.401	76.547643
702.611	77.108303
702.820	77.390462
703.030	77.702420
703.239	78.001978
703.449	77.936627
703.659	77.762539
703.868	77.605881
704.078	77.447719
704.287	77.211832
704.497	76.790485
704.706	76.141684
704.916	75.635802
705.125	75.448286
705.334	75.307501
705.544	75.278645
705.753	75.357971
705.962	75.434730
706.172	75.457763
706.381	75.627510
706.590	75.861962
706.800	76.273690
707.009	76.651191
707.218	76.855152
707.428	76.924786
707.637	77.001218
707.846	77.008212
708.055	77.103528
708.264	77.249938
708.474	77.422201
708.683	77.373065
708.892	77.117849
709.101	76.818118
709.310	76.589702
709.519	76.355065
709.728	76.279181
709.937	76.261116
710.146	76.255384
710.355	76.311886
710.564	76.327506
710.773	76.295818
710.982	76.444463
711.191	76.556490
711.400	76.567741
711.609	76.607408
711.818	76.684209
712.027	76.813177
712.235	76.977262
712.444	77.094831
712.653	77.154995
712.862	77.151894
713.071	77.197944
713.279	77.052882
713.488	76.869431
713.697	76.692234
713.906	76.579703
714.114	76.554754
714.323	76.501886
714.532	76.223451
714.740	75.897763
714.949	75.769556
715.157	75.836000
715.366	75.851965
715.575	75.946523
715.783	75.936940
715.992	75.681775
716.200	75.335472
716.409	75.103806
716.617	74.888517
716.826	74.804296
717.034	74.777969
717.242	74.496989
717.451	74.095616
717.659	73.805538
717.868	73.522003
718.076	73.565664
718.284	73.888412
718.493	74.230002
718.701	74.465182
718.909	74.571525
719.118	74.586227
719.326	74.543285
719.534	74.510009
719.742	74.587353
719.951	74.850076
720.159	75.041524
720.367	74.975555
720.575	74.669691
720.783	74.514624
720.991	74.669802
721.199	74.903604
721.408	75.074466
721.616	75.175307
721.824	75.363569
722.032	75.536400
722.240	75.375580
722.448	75.245302
722.656	75.233771
722.864	75.436075
723.072	75.631444
723.280	75.443704
723.487	75.223847
723.695	75.093070
723.903	75.167846
724.111	75.249617
724.319	75.251051
724.527	75.250684
724.735	75.392839
724.942	75.461965
725.150	75.367332
725.358	75.160791
725.566	75.095232
725.773	75.146088
725.981	75.104715
726.189	74.888808
726.396	74.533217
726.604	74.299924
726.812	74.382798
727.019	74.271811
727.227	73.997651
727.435	73.994650
727.642	73.968296
727.850	73.814665
728.057	73.756025
728.265	73.623390
728.472	73.513562
728.680	73.598853
728.887	73.557163
729.095	73.326246
729.302	73.150492
729.509	73.122033
729.717	73.062086
729.924	73.019755
730.132	73.166558
730.339	73.084580
730.546	73.099880
730.753	73.135231
730.961	73.003435
731.168	72.777141
731.375	72.439353
731.583	72.129833
731.790	72.100202
731.997	72.114762
732.204	72.184366
732.411	72.225269
732.618	72.143883
732.826	71.961894
733.033	71.715390
733.240	71.453883
733.447	71.381997
733.654	71.670839
733.861	72.053783
734.068	72.099334
734.275	72.015595
734.482	71.924815
734.689	71.796185
734.896	71.893393
735.103	72.164837
735.310	72.554337
735.517	72.937837
735.724	73.168625
735.931	73.044482
736.137	72.768996
736.344	72.603617
736.551	72.593104
736.758	72.667703
736.965	72.703356
737.171	72.706115
737.378	72.551777
737.585	72.127582
737.792	71.749158
737.998	71.439419
738.205	71.263210
738.412	71.170199
738.618	71.193572
738.825	71.071139
739.032	70.725948
739.238	70.426701
739.445	70.095622
739.651	69.853361
739.858	69.904256
740.064	70.037911
740.271	70.221468
740.477	70.297603
740.684	70.271220
740.890	70.142621
741.097	69.897791
741.303	69.761975
741.510	69.580977
741.716	69.370276
741.922	69.293249
742.129	69.280552
742.335	69.286200
742.541	69.114128
742.748	68.869001
742.954	68.636239
743.160	68.499375
743.366	68.580568
743.573	68.534358
743.779	68.448785
743.985	68.358391
744.191	68.259985
744.397	67.958530
744.604	67.469423
744.810	67.133858
745.016	67.046904
745.222	67.023725
745.428	66.768913
745.634	66.380043
745.840	66.140124
746.046	65.851727
746.252	65.718530
746.458	65.581519
746.664	65.722421
746.870	66.039294
747.076	66.300460
747.282	66.396433
747.488	66.365787
747.694	66.266771
747.900	66.310788
748.105	66.415528
748.311	66.719028
748.517	66.864515
748.723	66.794246
748.929	66.422760
749.134	65.884074
749.340	65.347464
749.546	64.916904
749.752	64.539674
749.957	64.516132
750.163	64.434891
750.369	64.158492
750.574	63.833467
750.780	63.568162
750.985	63.609790
751.191	63.668353
751.397	63.673538
751.602	63.872496
751.808	64.035768
752.013	64.130928
752.219	64.071216
752.424	63.995390
752.630	64.201020
752.835	64.366478
753.041	64.406687
753.246	64.089168
753.451	63.744675
753.657	63.526308
753.862	63.209187
754.067	62.769435
754.273	62.303468
754.478	61.971748
754.683	61.919740
754.889	61.745515
755.094	61.470611
755.299	61.132650
755.504	60.905239
755.710	60.810609
755.915	60.686184
756.120	60.390813
756.325	60.195017
756.530	60.240435
756.735	60.291260
756.940	60.129961
757.146	59.940970
757.351	59.777260
757.556	59.662231
757.761	59.516161
757.966	59.281650
758.171	59.092836
758.376	59.025348
758.581	58.971549
758.786	58.929392
758.990	58.717893
759.195	58.436082
759.400	58.090353
759.605	57.761692
759.810	57.407705
760.015	57.092710
760.220	57.189551
760.424	57.355359
760.629	57.295812
760.834	57.269298
761.039	57.174175
761.244	57.179533
761.448	57.234694
761.653	57.217091
761.858	57.144418
762.062	57.157397
762.267	57.238528
762.472	56.755692
762.676	56.071953
762.881	55.620620
763.085	55.163224
763.290	54.629990
763.494	54.020051
763.699	53.390704
763.903	52.953022
764.108	52.641404
764.312	52.334683
764.517	51.905884
764.721	51.715059
764.926	51.765639
765.130	51.777093
765.335	51.617221
765.539	51.620735
765.743	51.706401
765.948	51.723319
766.152	51.594110
766.356	51.290011
766.560	51.012778
766.765	50.858764
766.969	50.620611
767.173	50.388121
767.377	50.186068
767.582	50.111752
767.786	50.017317
767.990	49.875401
768.194	49.703343
768.398	49.509761
768.602	49.463466
768.806	49.323024
769.010	49.118521
769.215	49.168767
769.419	49.016588
769.623	48.785024
769.827	48.514551
770.031	48.146655
770.234	47.728923
770.438	47.333882
770.642	47.092961
770.846	46.735994
771.050	46.351559
771.254	46.163449
771.458	45.792597
771.662	45.515784
771.866	45.242245
772.069	45.004926
772.273	44.770994
772.477	44.483085
772.681	44.147132
772.885	43.744586
773.088	43.362809
773.292	43.101347
773.496	42.751070
773.699	42.383547
773.903	42.076790
774.107	41.731303
774.310	41.236060
774.514	40.805551
774.717	40.468957
774.921	40.311225
775.124	39.965721
775.328	39.588220
775.531	39.246280
775.735	38.956544
775.938	38.668633
776.142	38.247859
776.345	37.864694
776.549	37.650663
776.752	37.371426
776.956	37.076864
777.159	36.620589
777.362	36.331845
777.566	36.069155
777.769	35.843325
777.972	35.675018
778.176	35.360097
778.379	35.051874
778.582	34.817035
778.785	34.424038
778.989	34.112056
779.192	33.842671
779.395	33.603171
779.598	33.368210
779.801	33.166541
780.004	32.926098
780.207	32.429875
780.411	32.037515
780.614	31.676725
780.817	31.292346
781.020	30.942952
781.223	30.620290
781.426	30.303692
781.629	30.124644
781.832	29.853246
782.035	29.488408
782.238	29.137404
782.440	28.903100
782.643	28.648352
782.846	28.394097
783.049	28.049201
783.252	27.822119
783.455	27.606701
783.658	27.277376
783.860	26.749598
784.063	26.301651
784.266	25.881695
784.469	25.467036
784.671	25.125605
784.874	24.760568
785.077	24.370941
785.279	24.020797
785.482	23.769578
785.685	23.563148
785.887	23.350432
786.090	23.198433
786.293	22.977043
786.495	22.792091
786.698	22.540306
786.900	22.207755
787.103	21.977772
787.305	21.742688
787.508	21.520790
787.710	21.262697
787.913	20.781843
788.115	20.323029
788.317	19.930053
788.520	19.553509
788.722	19.078343
788.924	18.653616
789.127	18.324114
789.329	17.817573
789.531	17.357462
789.734	16.970586
789.936	16.516677
790.138	16.186688
790.340	15.959561
790.543	15.648961
790.745	15.360267
790.947	15.202470
791.149	14.961087
791.351	14.707474
791.553	14.578821
791.756	14.507658
791.958	14.460668
792.160	14.279769
792.362	13.994743
792.564	13.801108
792.766	13.669037
792.968	13.543181
793.170	13.400507
793.372	13.213407
793.574	12.902975
793.776	12.621182
793.978	12.332749
794.180	12.035667
794.381	11.866790
794.583	11.741428
794.785	11.541691
794.987	11.341872
795.189	11.054990
795.391	10.785558
795.592	10.721438
795.794	10.683708
795.996	10.566314
796.198	10.542947
796.399	10.327599
796.601	10.158557
796.803	10.017068
797.004	9.795749
797.206	9.561823
797.407	9.467358
797.609	9.336998
797.811	9.155813
798.012	9.085283
798.214	8.984301
798.415	8.833839
798.617	8.828339
798.818	8.788001
799.020	8.754905
799.221	8.827388
799.423	8.919859
799.624	8.973912
799.826	9.039022
800.027	9.006666
800.228	8.956979
800.430	8.959658
800.631	8.875980
800.832	8.788820
801.034	8.662824
801.235	8.536771
801.436	8.458785
801.637	8.292219
801.839	8.087629
802.040	8.049196
802.241	8.150683
802.442	8.069014
802.643	8.060745
802.844	8.089920
803.046	8.158644
803.247	8.244376
803.448	8.320274
803.649	8.246274
803.850	8.298301
804.051	8.460028
804.252	8.615027
804.453	8.594145
804.654	8.721284
804.855	8.849002
805.056	8.991426
805.257	9.086163
805.458	9.217722
805.659	9.380992
805.859	9.603370
806.060	9.752022
806.261	9.927125
806.462	9.936433
806.663	9.959683
806.864	10.085544
807.064	10.249868
807.265	10.362872
807.466	10.447058
807.667	10.507881
807.867	10.514588
808.068	10.551694
808.269	10.652749
808.469	10.764776
808.670	10.878419
808.870	11.140662
809.071	11.249289
809.272	11.240979
809.472	11.289410
809.673	11.504970
809.873	11.701661
810.074	11.996272
810.274	12.189275
810.475	12.422264
810.675	12.529765
810.876	12.730719
811.076	13.068998
811.276	13.239420
811.477	13.520649
811.677	13.809974
811.878	13.960779
812.078	14.147938
812.278	14.303560
812.479	14.553877
812.679	14.762284
812.879	14.974989
813.079	15.219184
813.280	15.192687
813.480	15.401270
813.680	15.619328
813.880	15.767427
814.080	15.825036
814.280	15.901629
814.480	15.998914
814.681	16.182810
814.881	16.390685
815.081	16.617123
815.281	16.807082
815.481	17.094044
815.681	17.425225
815.881	17.712762
816.081	17.979552
816.281	18.379550
816.481	18.798704
816.681	19.095816
816.880	19.347812
817.080	19.565477
817.280	19.855437
817.480	20.104916
817.680	20.404536
817.880	20.759591
818.080	21.031330
818.279	21.159802
818.479	21.264154
818.679	21.415711
818.879	21.694109
819.078	21.911698
819.278	22.250270
819.478	22.538257
819.677	22.906313
819.877	23.174775
820.077	23.445523
820.276	23.790254
820.476	24.283352
820.675	24.834055
820.875	25.200982
821.074	25.507060
821.274	25.830216
821.473	26.105392
821.673	26.303790
821.872	26.492185
822.072	26.792553
822.271	26.838474
822.471	26.952807
822.670	27.063489
822.869	27.070864
823.069	27.163794
823.268	27.334066
823.467	27.520779
823.667	27.707817
823.866	28.004335
824.065	28.365882
824.265	28.718391
824.464	29.154705
824.663	29.526205
824.862	29.920828
825.061	30.338952
825.261	30.840481
825.460	31.301763
825.659	31.690260
825.858	31.802873
826.057	31.915526
826.256	32.001399
826.455	32.106690
826.654	32.185659
826.853	32.328006
827.052	32.540003
827.251	32.803901
827.450	32.965122
827.649	33.188654
827.848	33.286062
828.047	33.535896
828.246	33.723924
828.445	33.960369
828.644	34.259082
828.843	34.469960
829.041	34.673128
829.240	34.827896
829.439	34.912626
829.638	35.007999
829.836	34.911774
830.035	35.037979
830.234	35.364099
830.433	35.536717
830.631	35.593542
830.830	35.559594
831.029	35.806333
831.227	36.080169
831.426	36.247423
831.624	36.347751
831.823	36.624670
832.022	37.134653
832.220	37.495821
832.419	37.430136
832.617	37.700695
832.816	37.912541
833.014	38.029696
833.213	38.074025
833.411	38.118364
833.609	38.274288
833.808	38.602849
834.006	38.890686
834.205	39.064026
834.403	39.295143
834.601	39.765162
834.800	39.911019
834.998	40.126936
835.196	40.584787
835.394	40.939073
835.593	41.211655
835.791	41.511417
835.989	41.736655
836.187	41.964532
836.385	42.076000
836.584	42.085036
836.782	42.310000
836.980	42.812372
837.178	43.284169
837.376	43.526501
837.574	43.845792
837.772	44.283450
837.970	44.505756
838.168	44.791962
838.366	45.130397
838.564	45.528154
838.762	45.846225
838.960	45.678054
839.158	45.567587
839.356	45.517827
839.554	45.456143
839.752	45.552472
839.949	45.366926
840.147	45.317208
840.345	45.278331
840.543	45.171525
840.741	45.284671
840.938	45.434975
841.136	45.949603
841.334	46.433419
841.532	46.795097
841.729	47.098787
841.927	47.264603
842.125	47.712106
842.322	48.283967
842.520	48.586704
842.718	48.855351
842.915	48.831156
843.113	48.837612
843.310	48.853021
843.508	48.741494
843.705	48.734321
843.903	48.980539
844.100	49.107564
844.298	49.197515
844.495	49.179459
844.693	49.316797
844.890	49.236730
845.087	49.310287
845.285	49.566415
845.482	49.792009
845.679	50.116573
845.877	50.489959
846.074	50.758522
846.271	50.977979
846.469	51.128561
846.666	51.280428
846.863	51.321707
847.060	51.321643
847.257	51.328557
847.455	51.479026
847.652	51.676640
847.849	51.867795
848.046	52.022207
848.243	51.958479
848.440	52.104437
848.637	52.313935
848.834	52.418372
849.031	52.574223
849.228	52.894109
849.425	53.139730
849.622	53.248203
849.819	53.391311
850.016	53.368746
850.213	53.430886
850.410	53.913942
850.607	54.422677
850.804	54.697638
851.001	55.013565
851.198	55.474476
851.394	55.887556
851.591	56.341369
851.788	56.781685
851.985	56.998866
852.181	57.200193
852.378	57.349508
852.575	57.130987
852.772	56.578357
852.968	56.244489
853.165	56.143761
853.362	56.015357
853.558	56.036236
853.755	56.096720
853.951	56.000668
854.148	56.191376
854.345	56.358822
854.541	56.380332
854.738	56.557375
854.934	57.018215
855.131	57.384413
855.327	57.724366
855.523	58.188788
855.720	58.408094
855.916	58.641949
856.113	59.071212
856.309	59.157256
856.505	59.192181
856.702	59.200752
856.898	59.012627
857.094	58.734676
857.291	58.771495
857.487	58.910789
857.683	58.925694
857.879	58.973714
858.076	58.997761
858.272	58.914807
858.468	58.993409
858.664	59.301024
858.860	59.579631
859.056	59.875301
859.253	60.159824
859.449	59.939978
859.645	59.580577
859.841	59.340925
860.037	59.392783
860.233	59.462991
860.429	59.578306
860.625	59.734039
860.821	59.773291
861.017	59.901664
861.213	60.089917
861.409	60.201843
861.604	60.756314
861.800	61.130953
861.996	61.472480
862.192	61.652819
862.388	61.797825
862.584	61.968537
862.779	62.074366
862.975	62.248157
863.171	62.351218
863.367	62.401194
863.562	62.595161
863.758	62.776058
863.954	62.901099
864.149	62.871385
864.345	62.578951
864.541	62.112043
864.736	61.562560
864.932	61.192524
865.127	60.789176
865.323	60.300722
865.518	59.884034
865.714	59.568569
865.910	59.000493
866.105	58.658028
866.300	58.765409
866.496	59.073919
866.691	59.550287
866.887	60.222320
867.082	60.657004
867.277	60.945100
867.473	61.192950
867.668	61.607452
867.864	61.841955
868.059	62.177305
868.254	62.394615
868.449	62.301961
868.645	62.218473
868.840	61.921888
869.035	61.760295
869.230	61.689726
869.425	61.805322
869.621	62.099708
869.816	61.963362
870.011	61.816979
870.206	61.732216
870.401	61.848678
870.596	61.699213
870.791	61.563229
870.986	61.542242
871.181	61.288642
871.376	61.052067
871.571	60.932727
871.766	60.905546
871.961	61.212032
872.156	61.647252
872.351	62.101067
872.546	62.376998
872.741	63.012556
872.936	63.559200
873.130	64.236377
873.325	64.754380
873.520	64.885877
873.715	64.904358
873.910	64.929988
874.104	64.704840
874.299	64.454924
874.494	64.177528
874.688	64.038835
874.883	63.951539
875.078	63.838540
875.272	63.672994
875.467	63.425256
875.662	63.543584
875.856	63.879146
876.051	63.975272
876.245	64.288974
876.440	64.550106
876.634	64.946292
876.829	65.142926
877.023	64.971147
877.218	65.006566
877.412	65.142811
877.607	65.428104
877.801	65.785199
877.995	66.085898
878.190	66.777378
878.384	67.253824
878.578	67.522874
878.773	67.529484
878.967	67.530434
879.161	67.753186
879.356	68.033269
879.550	68.398362
879.744	68.998539
879.938	69.110813
880.133	68.916746
880.327	68.468291
880.521	68.212602
880.715	68.155670
880.909	67.908531
881.103	67.854585
881.297	67.688580
881.491	67.459794
881.685	66.895227
881.880	66.274096
882.073	66.252835
882.267	66.861441
882.461	67.369190
882.655	67.602254
882.849	67.807107
883.043	68.305442
883.237	68.539585
883.431	69.035290
883.625	69.458409
883.819	70.023267
884.013	70.442604
884.206	70.399909
884.400	69.758583
884.594	69.298708
884.788	69.320194
884.982	69.318988
885.175	69.357571
885.369	69.467021
885.563	69.206534
885.756	69.181641
885.950	69.355899
886.144	69.421158
886.337	69.739601
886.531	70.209872
886.724	70.616551
886.918	70.654071
887.112	70.461638
887.305	70.157057
887.499	70.157906
887.692	70.019437
887.885	69.928842
888.079	70.036231
888.272	70.094031
888.466	70.001278
888.659	70.039525
888.853	70.137392
889.046	70.064182
889.239	70.173184
889.433	70.460049
889.626	70.738022
889.819	71.065024
890.013	71.060798
890.206	70.740320
890.399	70.630873
890.592	70.552347
890.785	70.127812
890.979	69.934650
891.172	70.168785
891.365	70.399575
891.558	70.462569
891.751	69.953057
891.944	69.776611
892.137	69.718842
892.330	69.735343
892.524	69.564584
892.717	69.528972
892.910	69.597418
893.103	69.525358
893.296	69.593318
893.488	69.865082
893.681	70.172055
893.874	70.560053
894.067	70.643852
894.260	70.799424
894.453	70.186070
894.646	70.090748
894.839	70.149957
895.031	70.400406
895.224	70.358601
895.417	70.035849
895.610	70.115495
895.802	70.178175
895.995	70.369854
896.188	70.517300
896.381	70.385360
896.573	70.888196
896.766	71.161333
896.958	71.059416
897.151	70.805052
897.344	70.788974
897.536	71.022048
897.729	70.758426
897.921	69.962905
898.114	69.658015
898.306	69.529279
898.499	69.472448
898.691	69.666712
898.884	69.548034
899.076	69.957975
899.269	70.412110
899.461	70.748638
899.653	71.144027
899.846	71.144673
900.038	71.526047
900.230	71.538490
900.423	71.858261
900.615	72.194901
900.807	72.347468
901.000	72.948119
901.192	72.970067
901.384	72.715341
901.576	72.962578
901.768	73.012584
901.961	73.038539
902.153	73.016262
902.345	72.821371
902.537	72.393910
902.729	72.288148
902.921	72.444144
903.113	72.231716
903.305	72.061683
903.497	72.031434
903.689	71.712953
903.881	71.120079
904.073	70.959940
904.265	70.869503
904.457	71.005796
904.649	71.182277
904.841	71.066355
905.033	70.671479
905.224	70.429564
905.416	70.388571
905.608	70.314016
905.800	69.839005
905.992	69.894950
906.183	70.388191
906.375	70.956961
906.567	71.660520
906.759	72.001072
906.950	72.039610
907.142	72.196698
907.334	72.230056
907.525	72.385770
907.717	72.708773
907.909	73.295896
908.100	73.282734
908.292	72.736297
908.483	72.434526
908.675	72.037741
908.866	71.846949
909.058	72.144837
909.249	72.513924
909.441	73.141448
909.632	73.319713
909.824	73.084345
910.015	72.821091
910.206	72.807978
910.398	72.810098
910.589	72.595636
910.780	72.422977
910.972	72.485180
911.163	72.511474
911.354	72.237083
911.546	71.632195
911.737	71.254073
911.928	71.290703
912.119	71.322804
912.310	71.890225
912.502	72.566662
912.693	72.887713
912.884	73.025047
913.075	72.998075
913.266	72.718140
913.457	72.348152
913.648	72.466827
913.839	72.604333
914.030	72.513988
914.221	72.570090
914.412	72.302633
914.603	72.179529
914.794	72.308057
914.985	72.512928
915.176	72.800265
915.367	73.250740
915.558	73.800755
915.749	73.959222
915.940	73.998431
916.130	74.404103
916.321	74.530572
916.512	74.133024
916.703	73.863499
916.893	73.729612
917.084	73.338138
917.275	72.834387
917.466	72.110744
917.656	72.109244
917.847	72.101669
918.038	72.027598
918.228	71.696848
918.419	71.867065
918.609	72.433584
918.800	72.377182
918.990	72.535603
919.181	73.243844
919.372	73.952114
919.562	74.831381
919.753	75.115323
919.943	75.714493
920.133	76.085000
920.324	76.212111
920.514	75.937631
920.705	75.542138
920.895	75.699810
921.085	75.335078
921.276	74.929138
921.466	74.707870
921.656	73.949563
921.847	73.243201
922.037	72.513638
922.227	72.706095
922.417	73.079237
922.608	73.637170
922.798	74.026566
922.988	74.000371
923.178	74.196458
923.368	74.035065
923.558	74.122481
923.748	75.120620
923.939	75.479083
924.129	75.765200
924.319	75.481673
924.509	75.084031
924.699	74.287789
924.889	73.492848
925.079	73.294256
925.269	73.185983
925.459	73.348258
925.648	73.102790
925.838	72.749655
926.028	72.900297
926.218	72.994523
926.408	73.055345
926.598	73.253798
926.788	73.636716
926.977	73.725866
927.167	73.750052
927.357	73.870342
927.547	74.116849
927.736	74.576897
927.926	74.740933
928.116	74.908434
928.305	75.207884
928.495	75.556009
928.685	75.647302
928.874	76.202823
929.064	77.304793
929.253	77.785562
929.443	78.158943
929.633	78.197243
929.822	78.024806
930.012	77.899853
930.201	77.680031
930.391	77.075410
930.580	76.777914
930.769	77.566917
930.959	77.744909
931.148	77.701669
931.338	77.861455
931.527	78.181456
931.716	78.221598
931.906	77.791378
932.095	77.600986
932.284	77.854306
932.474	78.269841
932.663	78.075912
932.852	77.201230
933.041	76.679391
933.230	76.244419
933.420	75.925387
933.609	75.431324
933.798	75.163203
933.987	75.113758
934.176	75.222225
934.365	75.068009
934.554	75.177166
934.743	75.947261
934.932	76.286992
935.121	76.186249
935.310	76.429523
935.499	76.442396
935.688	76.379728
935.877	76.156622
936.066	76.268251
936.255	76.166041
936.444	76.190616
936.633	76.169415
936.822	75.919600
937.010	75.585276
937.199	75.679078
937.388	75.848456
937.577	75.758832
937.766	75.906564
937.954	76.545359
938.143	76.934864
938.332	77.343704
938.520	77.997514
938.709	78.305472
938.898	77.964546
939.086	77.950933
939.275	77.759494
939.464	77.258582
939.652	77.303588
939.841	76.965266
940.029	76.681282
940.218	76.660280
940.406	76.284332
940.595	75.482599
940.783	74.558625
940.972	74.374221
941.160	74.648228
941.349	75.334673
941.537	75.914296
941.725	76.010181
941.914	76.372610
942.102	76.292416
942.290	76.188991
942.479	76.316894
942.667	76.460441
942.855	76.709822
943.043	76.886100
943.232	76.764307
943.420	75.902331
943.608	75.321522
943.796	75.283711
943.984	75.113501
944.172	75.615233
944.361	76.148483
944.549	76.546663
944.737	76.747599
944.925	76.739261
945.113	76.614691
945.301	76.530496
945.489	77.232898
945.677	77.733807
945.865	78.149540
946.053	78.883937
946.241	78.772377
946.429	78.352871
946.617	78.515256
946.805	78.379827
946.992	78.527314
947.180	78.695863
947.368	79.079136
947.556	78.903239
947.744	78.956931
947.931	78.815561
948.119	77.999600
948.307	77.467376
948.495	77.574493
948.682	77.147633
948.870	76.811733
949.058	76.480115
949.245	76.209624
949.433	75.452508
949.621	75.092010
949.808	75.060090
949.996	74.890452
950.183	75.020585
950.371	75.526133
950.558	76.046579
950.746	76.091502
950.933	76.377373
951.121	76.859326
951.308	77.266396
951.496	77.807839
951.683	78.171279
951.870	78.281878
952.058	78.807445
952.245	78.859345
952.433	78.983206
952.620	79.008922
952.807	79.116035
952.994	78.997516
953.182	78.967189
953.369	78.799537
953.556	78.784792
953.743	78.468147
953.931	77.865294
954.118	77.104358
954.305	77.267700
954.492	77.096233
954.679	76.109588
954.866	75.342979
955.053	75.235712
955.240	75.315606
955.427	75.674763
955.615	75.536497
955.802	75.788741
955.989	76.197977
956.175	76.380695
956.362	76.806028
956.549	77.181661
956.736	78.232559
956.923	79.162635
957.110	80.194018
957.297	80.585404
957.484	80.972348
957.671	81.471079
957.857	81.754035
958.044	81.709534
958.231	81.714088
958.418	81.838111
958.604	81.521208
958.791	81.392200
958.978	81.624412
959.165	80.791249
959.351	80.283733
959.538	79.912058
959.724	79.866170
959.911	79.667552
960.098	79.518658
960.284	79.647956
960.471	78.959727
960.657	78.924235
960.844	78.543382
961.030	77.686703
961.217	77.449235
961.403	77.202827
961.590	76.796086
961.776	76.753834
961.963	76.938103
962.149	76.669062
962.335	77.003040
962.522	77.184587
962.708	76.497828
962.894	76.174209
963.081	77.066731
963.267	77.676081
963.453	78.125029
963.639	78.526855
963.826	78.266896
964.012	78.218339
964.198	78.992297
964.384	78.697906
964.570	78.400526
964.756	78.660818
964.943	78.955454
965.129	78.881002
965.315	78.765082
965.501	78.955397
965.687	78.520348
965.873	78.576954
966.059	78.684852
966.245	78.371256
966.431	78.230621
966.617	78.015504
966.803	78.446393
966.989	78.392702
967.174	78.317043
967.360	78.733830
967.546	78.504657
967.732	78.519546
967.918	78.680756
968.104	78.832103
968.289	78.853806
968.475	78.673144
968.661	79.287395
968.847	79.187692
969.032	79.426942
969.218	79.305040
969.404	79.122222
969.589	79.706091
969.775	80.383654
969.961	80.396661
970.146	80.043462
970.332	80.362563
970.517	80.967822
970.703	80.888909
970.888	81.403634
971.074	81.744293
971.260	81.850271
971.445	82.040798
971.630	81.763773
971.816	81.107934
972.001	81.070319
972.187	81.261972
972.372	80.952248
972.557	80.966964
972.743	81.422288
972.928	81.067254
973.113	80.804002
973.299	80.850233
973.484	80.146578
973.669	79.303455
973.854	79.639334
974.040	80.093565
974.225	80.839927
974.410	80.956171
974.595	80.524960
974.780	79.913167
974.965	79.787037
975.151	79.458163
975.336	79.133577
975.521	79.737237
975.706	80.494911
975.891	80.645267
976.076	80.245721
976.261	79.282063
976.446	79.114142
976.631	79.567922
976.816	80.285758
977.001	81.228525
977.186	81.747988
977.370	82.104585
977.555	82.221457
977.740	82.720184
977.925	83.741612
978.110	84.193141
978.295	84.641629
978.479	85.092513
978.664	85.135173
978.849	84.593337
979.034	83.914485
979.218	83.659919
979.403	84.033455
979.588	83.888856
979.772	83.589505
979.957	82.565116
980.141	81.858796
980.326	81.174615
980.511	80.389221
980.695	80.161967
980.880	80.086223
981.064	80.215575
981.249	80.829935
981.433	79.928678
981.618	79.672387
981.802	79.474580
981.987	79.810390
982.171	79.984458
982.355	80.646505
982.540	81.363953
982.724	81.507406
982.908	81.598779
983.093	81.524559
983.277	80.237529
983.461	80.286197
983.646	80.694086
983.830	80.965126
984.014	80.540102
984.198	80.712523
984.382	81.073119
984.567	81.463997
984.751	81.755478
984.935	82.416875
985.119	82.840796
985.303	84.061031
985.487	85.022152
985.671	85.230611
985.855	85.736433
986.039	85.839883
986.223	86.169547
986.407	86.138667
986.591	85.587676
986.775	85.477881
986.959	85.546744
987.143	85.379302
987.327	85.197875
987.511	84.937196
987.695	84.476807
987.879	84.277362
988.062	84.952960
988.246	84.908506
988.430	84.913075
988.614	86.078139
988.797	86.341860
988.981	86.231576
989.165	85.557946
989.349	85.310287
989.532	85.671492
989.716	86.296283
989.900	86.175060
990.083	85.487907
990.267	85.217600
990.450	85.085585
990.634	83.791474
990.817	83.115256
991.001	82.786631
991.184	83.142147
991.368	83.250314
991.551	83.462466
991.735	83.585695
991.918	83.251236
992.102	83.405398
992.285	83.456391
992.469	82.742968
992.652	83.237535
992.835	84.004482
993.019	84.278175
993.202	84.450627
993.385	84.376533
993.568	84.952682
993.752	84.993250
993.935	85.547716
994.118	85.875086
994.301	86.077440
994.484	86.548057
994.668	87.143533
994.851	87.652688
995.034	87.187076
995.217	86.910581
995.400	87.633592
995.583	86.334821
995.766	86.495333
995.949	86.491106
996.132	86.263538
996.315	86.145058
996.498	86.052774
996.681	85.218260
996.864	84.417638
997.047	85.431893
997.230	85.854001
997.413	85.489300
997.596	84.876366
997.778	83.562646
997.961	83.821591
998.144	84.415188
998.327	84.255278
998.510	84.733785
998.692	85.175889
998.875	85.614572
999.058	85.638143
999.241	85.939239
999.423	85.962447
999.606	86.815873
999.789	87.436746
999.971	86.552845
1000.154	85.838300
1000.336	85.781527
1000.519	84.688028
1000.701	84.385197
1000.884	84.622874
1001.067	84.885303
1001.249	85.623572
1001.431	85.505485
1001.614	85.437518
1001.796	85.793912
1001.979	86.223572
1002.161	86.493312
1002.344	87.310571
1002.526	88.596036
1002.708	88.170868
1002.891	86.778521
1003.073	85.740787
1003.255	84.281294
1003.438	84.186076
1003.620	83.981699
1003.802	83.852982
1003.984	84.535601
1004.166	85.144208
1004.349	85.271942
1004.531	85.485505
1004.713	86.678427
1004.895	87.694604
1005.077	87.998575
1005.259	88.807374
1005.441	88.972816
1005.623	89.280130
1005.805	89.432448
1005.987	88.287755
1006.169	87.184861
1006.351	86.646766
1006.533	86.555362
1006.715	86.407738
1006.897	86.429751
1007.079	86.837649
1007.261	86.739514
1007.443	86.645734
1007.625	87.444371
1007.806	87.981692
1007.988	88.954368
1008.170	89.449906
1008.352	89.824379
1008.534	89.937292
1008.715	89.369797
1008.897	89.575626
1009.079	89.484375
1009.260	89.547483
1009.442	90.112806
1009.624	89.672908
1009.805	89.619832
1009.987	89.214785
1010.169	89.764261
1010.350	89.853852
1010.532	89.657731
1010.713	90.536175
1010.895	90.553169
1011.076	90.464045
1011.258	90.415667
1011.439	89.992205
1011.621	89.688685
1011.802	89.944418
1011.983	89.750028
1012.165	88.457699
1012.346	87.839913
1012.527	88.158327
1012.709	87.860718
1012.890	87.718950
1013.071	87.875889
1013.253	88.451816
1013.434	89.352816
1013.615	90.471218
1013.796	90.253022
1013.978	91.199649
1014.159	92.682877
1014.340	93.887994
1014.521	93.883260
1014.702	94.011338
1014.883	94.086137
1015.064	92.895502
1015.245	91.786649
1015.427	91.140141
1015.608	89.604640
1015.789	89.082850
1015.970	88.384303
1016.151	88.144742
1016.332	88.396891
1016.512	88.922964
1016.693	89.594340
1016.874	89.791061
1017.055	90.869911
1017.236	91.924752
1017.417	91.375670
1017.598	92.272348
1017.779	92.236759
1017.959	91.622095
1018.140	90.706434
1018.321	90.043904
1018.502	89.749288
1018.682	88.844862
1018.863	88.580328
1019.044	88.623284
1019.224	88.086214
1019.405	89.617981
1019.586	89.530964
1019.766	89.474267
1019.947	90.386527
1020.127	91.715244
1020.308	91.588844
1020.488	91.132808
1020.669	90.895972
1020.849	91.104859
1021.030	91.444548
1021.210	91.610692
1021.391	89.879374
1021.571	89.074730
1021.752	88.934662
1021.932	88.359397
1022.112	88.226041
1022.293	88.274969
1022.473	87.922596
1022.653	88.337796
1022.834	88.406011
1023.014	88.114753
1023.194	88.558004
1023.374	88.912189
1023.555	88.487943
1023.735	88.317150
1023.915	88.944629
1024.095	88.871300
1024.275	89.195020
1024.455	88.997074
1024.635	88.497669
1024.816	88.219686
1024.996	88.061611
1025.176	87.807396
1025.356	88.157493
1025.536	88.933004
1025.716	89.379903
1025.896	89.153738
1026.076	88.816762
1026.256	87.970100
1026.436	88.347600
1026.615	88.733550
1026.795	88.098892
1026.975	88.217094
1027.155	88.556614
1027.335	88.241349
1027.515	88.364883
1027.695	89.072743
1027.874	89.204724
1028.054	88.708896
1028.234	89.201473
1028.413	88.622490
1028.593	88.984434
1028.773	90.195712
1028.953	89.302977
1029.132	88.081015
1029.312	88.244273
1029.491	89.179428
1029.671	88.918637
1029.851	88.827670
1030.030	89.430537
1030.210	89.214908
1030.389	90.235752
1030.569	90.298096
1030.748	90.048578
1030.928	90.715063
1031.107	91.119273
1031.286	91.926543
1031.466	90.296623
1031.645	89.601718
1031.825	89.843065
1032.004	90.765210
1032.183	91.782534
1032.363	92.315343
1032.542	92.520267
1032.721	91.997520
1032.900	92.224391
1033.080	92.860209
1033.259	92.501290
1033.438	94.146018
1033.617	94.478092
1033.796	94.149964
1033.975	92.440798
1034.155	91.723779
1034.334	91.601687
1034.513	91.614732
1034.692	91.608844
1034.871	91.564228
1035.050	92.115003
1035.229	93.137331
1035.408	92.139216
1035.587	92.402275
1035.766	92.703827
1035.945	93.011506
1036.124	91.940171
1036.303	90.037886
1036.481	88.044382
1036.660	88.543591
1036.839	88.928512
1037.018	87.518878
1037.197	85.661454
1037.376	85.300724
1037.554	84.702907
1037.733	83.826532
1037.912	84.159572
1038.091	85.554278
1038.269	87.201402
1038.448	88.991480
1038.627	87.975054
1038.805	87.497977
1038.984	87.990680
1039.162	88.265820
1039.341	88.231376
1039.520	88.330462
1039.698	89.124342
1039.877	88.425950
1040.055	86.841407
1040.234	86.210903
1040.412	85.768788
1040.591	85.855445
1040.769	85.251438
1040.947	85.206230
1041.126	84.961508
1041.304	84.576689
1041.483	84.468125
1041.661	84.443408
1041.839	85.184633
1042.017	86.520338
1042.196	86.679411
1042.374	86.179353
1042.552	86.556733
1042.730	86.818170
1042.909	87.512001
1043.087	87.989242
1043.265	88.837303
1043.443	89.265775
1043.621	89.273177
1043.799	89.243251
1043.978	88.053127
1044.156	87.897888
1044.334	87.817051
1044.512	87.756068
1044.690	88.114541
1044.868	87.603722
1045.046	87.033616
1045.224	86.339704
1045.402	86.025152
1045.580	85.289249
1045.758	84.897860
1045.935	85.677813
1046.113	86.374390
1046.291	87.187729
1046.469	87.620343
1046.647	87.505295
1046.825	87.106941
1047.002	87.585811
1047.180	88.517272
1047.358	88.952195
1047.536	90.012538
1047.713	91.046819
1047.891	90.917759
1048.069	90.007496
1048.246	89.104295
1048.424	88.909915
1048.602	88.310664
1048.779	88.135523
1048.957	87.952081
1049.134	87.784930
1049.312	87.659046
1049.489	87.310826
1049.667	86.342056
1049.844	86.521075
1050.022	86.577050
1050.199	87.407276
1050.377	87.757094
1050.554	89.021882
1050.731	89.000500
1050.909	89.094425
1051.086	88.788046
1051.263	88.539147
1051.441	89.244411
1051.618	89.810116
1051.795	89.887762
1051.973	89.979800
1052.150	89.343276
1052.327	88.317338
1052.504	87.638131
1052.681	87.554446
1052.859	87.080738
1053.036	87.726927
1053.213	88.955933
1053.390	88.364177
1053.567	88.224050
1053.744	88.047329
1053.921	88.808296
1054.098	89.184921
1054.275	90.026958
1054.452	89.446556
1054.629	89.329056
1054.806	90.257392
1054.983	89.649098
1055.160	88.757853
1055.337	88.813796
1055.514	88.150117
1055.691	87.384443
1055.868	86.071256
1056.044	85.759593
1056.221	85.801194
1056.398	86.411966
1056.575	86.444177
1056.751	85.755468
1056.928	86.074304
1057.105	85.950307
1057.282	85.112945
1057.458	84.355056
1057.635	84.313926
1057.812	85.324278
1057.988	84.699340
1058.165	83.733769
1058.341	83.212843
1058.518	83.409452
1058.694	83.575299
1058.871	83.698436
1059.047	83.529026
1059.224	83.416736
1059.401	84.097801
1059.577	84.648590
1059.753	84.529733
1059.930	85.220771
1060.106	85.844158
1060.282	86.289087
1060.459	86.005462
1060.635	85.951313
1060.812	84.723520
1060.988	84.474786
1061.164	85.162357
1061.340	85.306055
1061.517	85.445836
1061.693	85.057726
1061.869	85.140796
1062.045	85.418731
1062.221	85.245502
1062.398	85.411210
1062.574	85.055033
1062.750	85.774517
1062.926	86.189143
1063.102	85.372660
1063.278	84.851677
1063.454	84.848069
1063.630	85.181108
1063.806	84.860754
1063.982	84.749365
1064.158	84.765868
1064.334	84.866341
1064.510	85.145771
1064.686	85.187349
1064.862	85.517284
1065.038	86.208345
1065.214	86.806233
1065.389	85.941509
1065.565	85.265456
1065.741	85.278900
1065.917	85.550489
1066.093	85.630439
1066.268	85.453580
1066.444	85.521868
1066.620	85.739885
1066.795	85.121051
1066.971	84.990621
1067.147	84.566250
1067.322	84.482101
1067.498	84.804802
1067.673	84.406480
1067.849	83.581648
1068.025	83.608484
1068.200	84.066679
1068.376	83.832784
1068.551	83.488574
1068.727	83.562238
1068.902	83.003181
1069.078	83.180002
1069.253	83.785179
1069.428	83.767462
1069.604	83.685977
1069.779	83.103562
1069.954	82.233877
1070.130	81.762740
1070.305	81.515362
1070.480	81.050241
1070.656	80.827857
1070.831	80.933092
1071.006	80.638008
1071.181	80.623362
1071.357	80.758721
1071.532	81.813976
1071.707	83.027211
1071.882	83.684653
1072.057	84.154892
1072.232	84.910070
1072.407	84.434733
1072.582	84.232360
1072.757	84.232622
1072.932	84.580922
1073.107	84.793783
1073.282	84.453445
1073.457	83.422755
1073.632	82.235759
1073.807	81.649002
1073.982	80.981080
1074.157	80.104536
1074.332	80.768175
1074.507	80.759801
1074.682	80.751538
1074.856	80.359104
1075.031	79.206515
1075.206	79.078869
1075.381	79.544710
1075.556	79.809253
1075.730	80.134753
1075.905	80.475003
1076.080	80.650052
1076.254	80.751675
1076.429	81.527940
1076.604	82.236196
1076.778	82.633137
1076.953	83.924664
1077.127	84.339525
1077.302	83.618525
1077.477	83.532085
1077.651	83.432741
1077.826	82.815788
1078.000	82.836444
1078.175	82.681144
1078.349	81.925614
1078.523	80.985128
1078.698	80.538444
1078.872	79.779826
1079.047	79.667880
1079.221	80.020193
1079.395	80.596408
1079.570	80.556238
1079.744	80.802744
1079.918	80.194185
1080.092	79.829312
1080.267	79.270187
1080.441	79.536063
1080.615	80.391754
1080.789	81.043649
1080.963	80.610678
1081.137	79.618098
1081.312	78.901437
1081.486	78.803504
1081.660	78.686642
1081.834	78.646537
1082.008	78.525411
1082.182	79.137250
1082.356	78.784667
1082.530	78.013785
1082.704	76.754985
1082.878	76.349000
1083.052	77.134167
1083.226	77.451910
1083.400	77.125925
1083.573	76.959972
1083.747	77.764310
1083.921	77.981108
1084.095	77.606877
1084.269	77.597835
1084.443	77.017638
1084.616	77.887991
1084.790	78.443746
1084.964	78.005421
1085.138	78.064665
1085.311	78.026513
1085.485	77.711196
1085.659	76.746104
1085.832	75.983433
1086.006	76.284085
1086.179	76.475169
1086.353	77.456285
1086.527	77.452321
1086.700	77.552021
1086.874	77.505793
1087.047	76.853554
1087.221	76.700946
1087.394	77.123164
1087.568	77.711532
1087.741	78.656156
1087.914	78.657887
1088.088	79.020667
1088.261	78.546901
1088.435	77.987455
1088.608	77.883643
1088.781	78.620214
1088.954	79.418926
1089.128	79.492998
1089.301	79.023423
1089.474	78.737661
1089.647	78.318579
1089.821	77.588179
1089.994	76.486234
1090.167	76.384723
1090.340	76.605741
1090.513	76.102253
1090.686	75.761557
1090.859	75.137283
1091.032	74.652243
1091.206	74.933758
1091.379	74.789098
1091.552	74.896313
1091.725	75.163595
1091.898	75.075633
1092.071	74.636538
1092.244	74.088350
1092.416	73.785184
1092.589	73.306560
1092.762	73.421650
1092.935	74.121794
1093.108	73.801033
1093.281	73.789425
1093.453	73.277600
1093.626	73.263446
1093.799	73.727758
1093.972	73.880839
1094.145	73.977685
1094.317	74.056755
1094.490	74.137760
1094.663	73.254601
1094.835	72.612583
1095.008	72.946348
1095.181	72.902508
1095.353	73.171227
1095.526	73.472069
1095.698	73.103301
1095.871	72.813726
1096.043	72.311117
1096.216	72.158437
1096.388	71.857919
1096.561	71.585832
1096.733	71.214968
1096.906	71.213605
1097.078	71.071006
1097.250	70.843952
1097.423	70.139233
1097.595	70.526416
1097.768	70.895540
1097.940	71.663319
1098.112	72.312728
1098.284	72.949314
1098.457	73.705061
1098.629	74.669144
1098.801	74.891919
1098.973	74.880013
1099.146	74.780003
1099.318	74.612491
1099.490	74.144699
1099.662	74.069236
1099.834	73.448500
1100.006	72.844220
1100.178	72.372210
1100.350	72.414190
1100.522	72.401651
1100.694	71.900381
1100.866	72.154042
1101.038	72.314947
1101.210	72.453061
1101.382	72.610944
1101.554	72.000090
1101.726	71.896752
1101.898	71.340036
1102.070	70.949099
1102.241	70.565971
1102.413	69.877885
1102.585	70.091423
1102.757	70.013073
1102.929	70.068391
1103.100	69.898942
1103.272	69.621318
1103.444	70.209241
1103.616	70.237623
1103.787	70.358385
1103.959	70.651984
1104.130	70.806330
1104.302	70.775231
1104.474	70.157449
1104.645	69.217262
1104.817	68.551870
1104.988	68.478932
1105.160	68.470786
1105.331	68.004846
1105.503	68.123640
1105.674	68.736369
1105.846	68.868892
1106.017	68.742873
1106.189	68.442467
1106.360	68.371283
1106.531	68.694933
1106.703	68.720248
1106.874	68.343014
1107.045	68.231225
1107.217	68.017277
1107.388	67.509589
1107.559	66.701076
1107.730	65.955024
1107.902	65.980900
1108.073	67.006799
1108.244	67.355791
1108.415	67.234144
1108.586	67.142345
1108.757	67.099072
1108.929	67.220073
1109.100	67.228671
1109.271	67.315280
1109.442	67.402280
1109.613	67.616674
1109.784	67.521995
1109.955	66.896007
1110.126	66.586771
1110.297	66.516936
1110.468	66.593930
1110.639	67.082294
1110.809	66.873034
1110.980	66.648783
1111.151	67.037571
1111.322	67.147333
1111.493	67.261184
1111.664	67.240129
1111.834	66.842237
1112.005	66.676476
1112.176	66.985690
1112.347	67.102069
1112.517	66.725640
1112.688	66.257625
1112.859	66.197525
1113.029	65.828874
1113.200	65.867946
1113.371	65.561028
1113.541	64.980738
1113.712	65.006789
1113.882	64.943701
1114.053	64.309077
1114.223	63.950125
1114.394	63.543588
1114.564	63.430233
1114.735	63.287788
1114.905	62.794355
1115.076	62.295843
1115.246	62.041998
1115.416	62.006787
1115.587	61.820356
1115.757	61.065992
1115.927	61.065956
1116.098	60.950090
1116.268	60.670863
1116.438	60.680658
1116.609	60.647585
1116.779	61.041276
1116.949	61.046794
1117.119	60.950879
1117.289	60.655741
1117.459	60.074473
1117.630	60.559149
1117.800	60.724967
1117.970	60.304766
1118.140	60.396445
1118.310	60.380497
1118.480	60.333390
1118.650	59.670100
1118.820	59.354888
1118.990	59.000662
1119.160	58.921446
1119.330	59.266098
1119.500	58.958400
1119.670	59.033590
1119.840	59.547929
1120.010	59.589244
1120.179	59.503582
1120.349	59.441012
1120.519	59.182243
1120.689	58.972348
1120.859	59.175927
1121.028	59.481344
1121.198	59.440212
1121.368	59.776106
1121.538	59.363390
1121.707	59.271358
1121.877	59.375030
1122.047	59.849252
1122.216	59.992755
1122.386	60.421597
1122.555	60.563665
1122.725	60.095209
1122.894	59.377751
1123.064	58.831258
1123.233	58.163968
1123.403	57.980804
1123.573	57.485082
1123.742	56.797249
1123.911	55.557007
1124.081	54.934922
1124.250	54.772047
1124.419	54.686382
1124.589	54.864993
1124.758	55.181508
1124.927	55.648223
1125.097	55.531774
1125.266	54.986328
1125.435	54.961766
1125.605	55.424356
1125.774	55.734511
1125.943	55.685859
1126.112	55.314571
1126.281	55.335585
1126.450	55.727485
1126.620	55.979095
1126.789	55.560245
1126.958	55.649698
1127.127	56.101395
1127.296	56.510739
1127.465	56.562590
1127.634	56.897118
1127.803	57.157750
1127.972	57.472626
1128.141	57.159253
1128.310	57.028075
1128.479	56.993304
1128.648	56.892682
1128.817	56.973949
1128.985	56.465638
1129.154	55.709042
1129.323	55.539335
1129.492	55.334258
1129.661	54.923055
1129.829	54.888834
1129.998	54.927550
1130.167	54.332691
1130.336	53.644500
1130.504	53.636921
1130.673	53.436354
1130.842	53.625676
1131.010	53.599450
1131.179	53.130965
1131.347	52.829161
1131.516	52.362526
1131.685	51.754851
1131.853	51.306775
1132.022	51.095431
1132.190	51.324457
1132.359	51.208295
1132.527	51.187485
1132.696	51.026702
1132.864	51.004679
1133.032	50.735179
1133.201	50.381390
1133.369	50.937158
1133.537	51.296112
1133.706	51.413637
1133.874	51.783103
1134.042	51.479893
1134.211	51.170509
1134.379	51.070344
1134.547	51.095555
1134.715	50.687502
1134.884	51.025954
1135.052	51.217114
1135.220	50.586090
1135.388	50.539164
1135.556	50.682343
1135.724	50.265046
1135.892	50.042828
1136.060	50.241018
1136.228	49.455854
1136.396	48.870683
1136.564	48.450759
1136.732	47.868855
1136.900	47.665632
1137.068	47.679204
1137.236	47.256176
1137.404	46.916500
1137.572	46.982749
1137.740	47.086021
1137.908	46.537212
1138.076	46.545305
1138.243	46.670782
1138.411	46.938006
1138.579	46.827163
1138.747	46.815818
1138.914	46.802833
1139.082	46.738547
1139.250	46.646954
1139.417	46.689131
1139.585	46.410857
1139.753	46.723266
1139.920	47.098295
1140.088	46.880937
1140.256	46.924337
1140.423	47.186083
1140.591	46.851859
1140.758	46.641742
1140.926	46.186269
1141.093	46.234969
1141.261	46.027185
1141.428	45.974029
1141.596	45.979624
1141.763	45.821487
1141.930	45.792889
1142.098	45.333483
1142.265	45.124984
1142.432	45.684689
1142.600	46.092209
1142.767	46.286869
1142.934	45.690291
1143.102	44.973532
1143.269	44.743058
1143.436	44.360039
1143.603	44.247266
1143.771	44.132704
1143.938	44.250173
1144.105	44.071948
1144.272	43.501411
1144.439	42.748263
1144.606	42.750634
1144.773	43.637771
1144.940	43.930894
1145.107	43.773463
1145.274	43.745603
1145.441	43.543148
1145.608	43.697481
1145.775	43.961080
1145.942	43.604486
1146.109	43.539868
1146.276	43.797767
1146.443	43.681388
1146.610	43.007102
1146.776	42.767798
1146.943	42.724244
1147.110	42.242681
1147.277	42.250891
1147.444	42.066752
1147.610	41.570641
1147.777	41.664207
1147.944	41.774270
1148.110	41.729442
1148.277	41.808221
1148.444	41.850294
1148.610	41.977860
1148.777	42.151248
1148.944	42.509664
1149.110	42.625196
1149.277	42.254542
1149.443	42.248353
1149.610	42.304051
1149.776	41.736295
1149.943	41.809370
1150.109	41.290765
1150.276	40.675559
1150.442	40.569136
1150.608	40.240957
1150.775	39.894514
1150.941	39.330625
1151.107	39.691378
1151.274	39.882228
1151.440	39.541295
1151.606	39.379199
1151.773	39.058639
1151.939	39.052228
1152.105	39.063584
1152.271	38.776097
1152.438	38.653860
1152.604	38.648388
1152.770	38.765985
1152.936	38.415306
1153.102	38.342003
1153.268	38.316838
1153.434	38.536789
1153.600	38.157257
1153.766	37.797629
1153.932	37.911987
1154.098	37.776087
1154.264	38.027906
1154.430	38.482741
1154.596	38.592464
1154.762	38.677988
1154.928	38.452887
1155.094	38.624819
1155.260	38.520915
1155.426	38.580175
1155.591	38.407567
1155.757	38.333834
1155.923	37.734462
1156.089	36.934320
1156.255	35.877637
1156.420	35.241148
1156.586	35.508059
1156.752	35.416329
1156.917	35.451101
1157.083	35.313385
1157.249	35.196329
1157.414	35.400156
1157.580	35.167387
1157.745	35.218963
1157.911	35.500099
1158.076	35.651993
1158.242	35.766851
1158.407	35.360428
1158.573	35.215308
1158.738	34.974205
1158.904	34.737540
1159.069	34.341032
1159.235	34.075194
1159.400	34.267070
1159.565	34.720880
1159.731	34.848950
1159.896	35.109364
1160.061	35.495241
1160.227	35.337741
1160.392	35.122880
1160.557	34.704002
1160.722	34.286392
1160.888	34.402826
1161.053	34.565508
1161.218	34.027354
1161.383	33.857571
1161.548	33.121050
1161.713	31.988778
1161.878	31.405535
1162.043	31.434832
1162.208	31.193304
1162.374	31.171108
1162.539	31.441808
1162.704	31.540364
1162.869	31.644357
1163.033	31.561276
1163.198	31.440211
1163.363	32.100157
1163.528	33.359928
1163.693	33.645822
1163.858	33.875329
1164.023	34.006555
1164.188	34.206510
1164.353	33.834703
1164.517	33.233146
1164.682	32.824088
1164.847	33.353339
1165.011	33.622933
1165.176	33.370438
1165.341	32.899726
1165.506	32.607953
1165.670	31.649797
1165.835	31.314080
1166.000	30.756947
1166.164	30.648487
1166.329	30.701464
1166.493	30.589896
1166.658	29.849127
1166.822	29.240374
1166.987	29.206200
1167.151	28.838439
1167.316	28.572185
1167.480	28.666876
1167.645	28.742103
1167.809	28.932681
1167.973	29.280873
1168.138	29.396036
1168.302	29.448990
1168.466	29.653312
1168.631	29.800177
1168.795	29.484563
1168.959	29.918970
1169.124	30.198614
1169.288	30.326534
1169.452	30.094230
1169.616	30.142880
1169.780	30.315792
1169.944	30.955082
1170.109	31.348888
1170.273	31.179520
1170.437	30.988486
1170.601	30.831519
1170.765	30.073806
1170.929	29.638158
1171.093	29.534380
1171.257	29.836761
1171.421	29.708868
1171.585	29.386469
1171.749	28.775722
1171.913	28.168695
1172.077	28.080315
1172.240	28.253207
1172.404	28.634485
1172.568	28.876630
1172.732	29.113950
1172.896	29.378338
1173.060	29.484100
1173.223	29.350000
1173.387	29.068620
1173.551	28.497119
1173.715	28.588139
1173.878	29.125703
1174.042	28.658545
1174.206	28.490406
1174.369	28.853771
1174.533	28.589643
1174.696	27.869033
1174.860	27.460473
1175.023	27.179730
1175.187	26.844452
1175.351	27.039389
1175.514	27.139269
1175.677	26.932399
1175.841	27.158498
1176.004	26.596155
1176.168	25.708257
1176.331	25.442163
1176.495	25.839465
1176.658	26.237641
1176.821	26.879530
1176.985	27.441000
1177.148	27.559242
1177.311	27.562690
1177.474	27.020458
1177.638	26.597563
1177.801	26.377292
1177.964	26.693550
1178.127	26.644796
1178.291	26.121604
1178.454	25.708275
1178.617	25.074704
1178.780	24.688952
1178.943	25.015689
1179.106	24.557947
1179.269	24.566160
1179.432	24.802481
1179.595	25.247761
1179.758	25.302661
1179.921	25.616745
1180.084	25.620942
1180.247	25.211416
1180.410	25.234547
1180.573	25.284660
1180.736	24.951166
1180.899	24.789024
1181.061	24.751418
1181.224	24.950028
1181.387	25.273213
1181.550	25.252923
1181.713	25.074887
1181.875	25.138353
1182.038	25.455508
1182.201	25.640625
1182.363	25.773946
1182.526	25.654553
1182.689	26.251351
1182.851	26.690961
1183.014	26.585572
1183.177	25.953413
1183.339	25.920730
1183.502	25.893449
1183.664	26.188947
1183.827	26.614069
1183.989	26.462382
1184.152	27.043781
1184.314	27.007709
1184.477	26.101088
1184.639	25.592079
1184.801	25.422190
1184.964	25.490879
1185.126	25.372649
1185.288	25.533187
1185.451	25.298832
1185.613	25.142808
1185.775	25.067638
1185.938	24.755731
1186.100	24.964910
1186.262	25.633121
1186.424	25.818459
1186.586	25.923492
1186.749	26.531862
1186.911	26.729203
1187.073	26.498963
1187.235	26.622803
1187.397	26.177344
1187.559	26.629654
1187.721	26.307215
1187.883	26.169550
1188.045	26.246068
1188.207	26.134021
1188.369	25.971319
1188.531	25.407567
1188.693	24.896599
1188.855	24.844545
1189.017	24.797010
1189.179	25.102677
1189.341	24.745907
1189.502	24.568112
1189.664	24.469937
1189.826	24.251939
1189.988	24.415946
1190.150	24.600152
1190.311	24.488618
1190.473	24.813934
1190.635	24.847616
1190.796	24.835550
1190.958	24.932643
1191.120	24.846890
1191.281	24.993975
1191.443	25.316363
1191.604	25.569081
1191.766	25.595688
1191.928	25.201492
1192.089	25.111541
1192.251	24.974856
1192.412	25.068418
1192.574	24.866781
1192.735	24.614513
1192.896	24.358065
1193.058	24.031440
1193.219	23.701572
1193.381	23.172497
1193.542	22.913610
1193.703	23.448668
1193.865	24.077589
1194.026	24.517670
1194.187	24.527233
1194.349	25.068158
1194.510	25.175556
1194.671	24.982217
1194.832	25.150816
1194.993	25.493608
1195.155	25.702864
1195.316	26.062252
1195.477	26.364384
1195.638	26.064114
1195.799	25.500545
1195.960	25.050542
1196.121	24.505377
1196.282	24.507864
1196.443	24.974780
1196.604	25.292198
1196.765	24.950915
1196.926	24.822491
1197.087	24.805144
1197.248	24.312948
1197.409	24.177285
1197.570	24.618186
1197.730	25.582225
1197.891	25.650674
1198.052	25.260880
1198.213	25.328595
1198.374	25.080988
1198.534	25.255369
1198.695	25.415211
1198.856	24.958076
1199.016	25.177497
1199.177	25.377277
1199.338	25.510839
1199.498	24.957244
1199.659	24.546189
1199.820	25.009547
1199.980	25.036412
1200.141	25.313633
1200.301	25.413424
1200.462	25.683969
1200.622	25.680353
1200.783	25.558003
1200.943	25.723635
1201.104	25.923528
1201.264	25.891208
1201.424	26.612266
1201.585	26.267628
1201.745	26.099873
1201.906	25.974818
1202.066	25.613416
1202.226	25.573260
1202.386	26.437787
1202.547	26.529309
1202.707	26.923956
1202.867	27.296462
1203.027	27.717720
1203.188	27.741454
1203.348	28.255302
1203.508	28.892867
1203.668	29.302490
1203.828	29.834054
1203.988	29.730449
1204.148	29.215388
1204.308	29.489845
1204.468	29.372931
1204.628	28.289680
1204.788	27.990304
1204.948	27.830852
1205.108	27.587611
1205.268	27.664351
1205.428	27.353699
1205.588	27.023681
1205.748	27.293994
1205.908	27.877667
1206.068	27.450935
1206.228	26.709733
1206.387	27.050741
1206.547	27.482486
1206.707	28.006942
1206.867	27.985298
1207.026	27.437944
1207.186	27.750923
1207.346	27.962333
1207.505	27.865470
1207.665	27.264271
1207.825	27.527640
1207.984	28.071213
1208.144	28.385995
1208.303	28.585825
1208.463	28.087157
1208.622	28.055183
1208.782	28.248781
1208.941	27.906751
1209.101	27.688150
1209.260	27.745721
1209.420	27.936344
1209.579	27.767514
1209.739	27.980176
1209.898	27.762063
1210.057	27.223110
1210.217	27.286760
1210.376	27.348246
1210.535	27.322537
1210.694	28.254702
1210.854	28.897705
1211.013	29.104405
1211.172	29.517027
1211.331	29.931405
1211.490	29.649059
1211.650	29.687760
1211.809	29.924624
1211.968	30.135097
1212.127	30.531491
1212.286	30.706351
1212.445	30.220307
1212.604	30.090014
1212.763	30.203912
1212.922	30.223183
1213.081	30.384972
1213.240	30.603355
1213.399	30.616320
1213.558	31.067140
1213.717	31.054767
1213.876	31.254913
1214.035	31.623666
1214.194	31.867803
1214.352	31.984167
1214.511	31.980775
1214.670	31.914220
1214.829	31.907034
1214.988	32.226643
1215.146	32.670336
1215.305	32.422049
1215.464	32.326827
1215.622	32.294533
1215.781	32.364733
1215.940	32.227062
1216.098	32.091954
1216.257	31.507002
1216.415	31.054742
1216.574	31.016245
1216.732	30.822686
1216.891	30.773053
1217.049	30.771526
1217.208	31.136076
1217.366	31.226014
1217.525	31.316559
1217.683	31.394620
1217.842	31.353444
1218.000	31.678173
1218.158	31.799155
1218.317	31.669275
1218.475	31.752873
1218.633	31.600496
1218.792	31.564264
1218.950	31.473688
1219.108	31.168441
1219.266	31.418155
1219.425	31.913557
1219.583	32.604279
1219.741	32.892247
1219.899	33.179234
1220.057	33.483258
1220.215	33.098490
1220.373	33.054352
1220.531	33.197119
1220.689	33.350218
1220.847	32.817372
1221.005	32.003894
1221.163	31.451809
1221.322	30.838349
1221.479	30.835218
1221.637	30.862222
1221.795	30.738868
1221.953	30.950060
1222.111	31.024388
1222.269	31.166815
1222.427	31.240519
1222.584	32.022158
1222.742	33.056016
1222.900	33.421128
1223.058	33.964880
1223.216	34.403934
1223.373	34.651406
1223.531	34.682507
1223.689	35.419253
1223.846	35.540897
1224.004	35.465363
1224.162	35.011022
1224.319	34.874728
1224.477	33.869400
1224.634	33.426904
1224.792	32.793320
1224.949	31.989144
1225.107	31.517375
1225.264	31.869726
1225.422	31.979736
1225.579	32.429280
1225.737	32.422621
1225.894	32.965823
1226.052	33.186464
1226.209	33.832245
1226.366	34.499587
1226.523	35.262261
1226.681	36.166813
1226.838	37.165218
1226.995	37.372001
1227.153	36.827646
1227.310	36.108995
1227.467	36.461587
1227.624	36.886867
1227.781	37.235887
1227.938	37.156874
1228.096	36.798399
1228.253	36.878989
1228.410	37.339819
1228.567	37.024784
1228.724	36.683120
1228.881	36.852501
1229.038	37.744301
1229.195	38.029494
1229.352	38.031192
1229.509	37.908721
1229.666	37.689991
1229.823	37.644883
1229.980	37.409411
1230.136	37.137429
1230.293	37.560068
1230.450	37.764970
1230.607	37.793820
1230.764	37.669551
1230.921	37.782781
1231.077	37.824026
1231.234	37.577849
1231.391	38.036691
1231.547	38.402210
1231.704	38.475556
1231.861	38.406868
1232.018	38.199956
1232.174	38.205218
1232.331	38.393599
1232.487	38.270485
1232.644	37.985619
1232.800	38.152228
1232.957	38.631797
1233.113	38.554481
1233.270	38.273492
1233.426	38.602040
1233.583	38.665331
1233.739	38.677894
1233.896	38.972769
1234.052	38.928564
1234.208	39.271739
1234.365	39.115683
1234.521	38.780644
1234.677	38.745889
1234.834	38.938213
1234.990	39.390714
1235.146	39.154531
1235.302	39.017220
1235.459	38.828587
1235.615	38.494340
1235.771	38.331598
1235.927	38.130477
1236.083	38.317347
1236.239	38.507747
1236.396	38.613236
1236.552	38.126840
1236.708	37.605958
1236.864	38.051441
1237.020	37.955994
1237.176	38.041042
1237.332	38.558904
1237.488	39.392503
1237.644	39.525146
1237.799	40.104039
1237.955	39.982608
1238.111	39.996035
1238.267	41.085419
1238.423	41.359713
1238.579	40.709139
1238.734	40.957653
1238.890	41.573812
1239.046	41.395684
1239.202	40.914801
1239.357	40.565049
1239.513	40.581878
1239.669	41.113067
1239.824	41.250835
1239.980	41.014804
1240.136	41.687187
1240.291	42.124054
1240.447	42.313239
1240.603	41.841669
1240.758	41.706695
1240.914	41.950442
1241.069	42.099981
1241.225	41.335178
1241.380	40.572145
1241.535	40.427429
1241.691	40.578905
1241.846	40.503466
1242.002	40.996427
1242.157	41.108175
1242.313	41.544913
1242.468	42.333788
1242.623	42.572629
1242.778	42.941521
1242.934	43.428001
1243.089	44.133913
1243.244	44.341740
1243.399	44.476135
1243.554	44.595756
1243.710	44.516748
1243.865	44.665843
1244.020	44.580338
1244.175	44.332587
1244.330	44.465311
1244.485	44.524581
1244.640	44.523728
1244.795	44.547630
1244.950	44.942434
1245.105	44.838191
1245.260	44.461239
1245.415	44.486200
1245.570	44.032926
1245.725	43.862586
1245.880	43.541854
1246.035	43.167032
1246.190	43.417733
1246.345	44.175153
1246.499	44.809160
1246.654	45.287374
1246.809	45.126234
1246.964	45.474277
1247.118	45.264307
1247.273	45.388799
1247.428	45.428710
1247.583	45.590720
1247.737	45.666710
1247.892	45.995738
1248.047	45.696668
1248.201	45.275956
1248.356	44.940781
1248.510	45.266032
1248.665	44.486264
1248.819	44.376181
1248.974	44.849325
1249.128	45.567288
1249.283	45.700977
1249.437	46.159440
1249.592	45.692081
1249.746	45.119342
1249.900	44.724306
1250.055	44.078901
1250.209	44.128920
1250.363	45.258057
1250.518	45.471345
1250.672	45.452359
1250.826	45.364028
1250.981	45.862911
1251.135	45.981303
1251.289	46.441269
1251.443	46.997997
1251.597	47.685876
1251.751	48.540213
1251.906	49.186718
1252.060	49.271198
1252.214	49.414628
1252.368	49.472793
1252.522	49.428060
1252.676	49.130706
1252.830	49.140840
1252.984	49.665691
1253.138	50.285465
1253.292	50.364688
1253.446	50.432875
1253.600	49.825314
1253.754	50.040495
1253.907	50.015184
1254.061	50.647285
1254.215	51.152139
1254.369	50.955411
1254.523	50.908130
1254.677	50.624564
1254.830	50.483877
1254.984	50.017199
1255.138	49.314136
1255.292	49.570518
1255.445	49.383710
1255.599	49.768282
1255.752	48.857904
1255.906	48.259303
1256.060	49.030697
1256.213	49.001335
1256.367	49.339256
1256.520	49.054021
1256.674	48.936006
1256.827	49.186091
1256.981	49.326176
1257.134	49.242578
1257.288	48.975119
1257.441	49.028593
1257.594	49.482744
1257.748	49.111609
1257.901	48.461621
1258.055	47.592562
1258.208	47.331899
1258.361	47.604684
1258.515	48.301373
1258.668	48.308387
1258.821	48.506202
1258.974	48.041051
1259.127	48.854183
1259.281	49.851002
1259.434	49.943556
1259.587	51.366587
1259.740	52.180207
1259.893	53.261487
1260.046	53.932614
1260.199	54.206036
1260.352	54.396769
1260.505	53.947735
1260.658	54.184585
1260.811	54.012940
1260.964	53.511040
1261.117	53.248835
1261.270	52.591975
1261.423	52.024566
1261.576	50.356772
1261.729	49.509919
1261.882	49.115575
1262.035	48.669101
1262.188	49.148011
1262.340	49.672264
1262.493	49.264931
1262.646	48.687736
1262.798	49.669976
1262.951	50.300266
1263.104	51.664216
1263.257	52.587387
1263.409	53.730909
1263.562	53.254623
1263.714	53.209511
1263.867	52.536053
1264.020	52.388763
1264.172	53.032689
1264.325	53.441907
1264.477	52.577703
1264.630	51.759603
1264.782	51.220979
1264.935	51.983490
1265.087	51.667948
1265.240	52.189260
1265.392	53.030091
1265.544	54.452096
1265.697	54.894348
1265.849	54.025592
1266.001	54.438015
1266.154	54.386450
1266.306	54.683946
1266.458	54.283823
1266.610	53.490707
1266.762	53.042215
1266.915	52.857724
1267.067	51.907305
1267.219	51.075423
1267.371	51.236446
1267.523	52.341372
1267.675	51.755755
1267.828	52.393136
1267.979	52.860596
1268.132	52.618731
1268.284	53.171917
1268.436	53.767304
1268.588	54.361590
1268.740	54.845823
1268.891	55.308146
1269.043	55.554273
1269.195	55.730115
1269.347	56.585543
1269.499	57.204205
1269.651	56.896773
1269.803	57.910047
1269.955	58.016242
1270.106	58.548902
1270.258	58.062981
1270.410	58.238996
1270.562	57.796794
1270.713	57.958232
1270.865	57.527660
1271.017	57.000203
1271.168	55.583114
1271.320	55.537240
1271.471	54.944475
1271.623	54.713987
1271.775	54.258843
1271.926	54.552906
1272.078	54.858638
1272.229	55.664166
1272.381	56.155512
1272.532	57.145453
1272.684	57.052957
1272.835	57.581672
1272.986	57.596229
1273.138	57.980581
1273.289	58.213200
1273.440	58.716450
1273.592	59.027198
1273.743	59.257758
1273.894	59.037335
1274.046	59.251440
1274.197	58.641980
1274.348	58.781839
1274.500	59.572840
1274.651	60.459940
1274.802	61.021701
>>>>>>>>>> END of Data <<<<<<<<<<
