Date	2025年07月03日木曜日 09時54分43秒
Spectrometers	SR401765
ダーク	使用
リファレンス	使用
積分時間[msec]	300
平均回数	1
ｽﾑｰｼﾞﾝｸﾞ	5
Electrical Dark	USE
ピクセル数	3648
計測モード	反射率
保存開始波長[nm]	598.495
保存終了波長[nm]	1274.802
保存ﾋﾟｯﾁ波長[nm]	全波長

>>>>>>>>>> Data Start <<<<<<<<<<<<
598.495	27485.134557
598.713	27485.134557
598.931	27485.134557
599.148	27485.134557
599.366	0.000000
599.584	0.000000
599.802	3716.471330
600.020	284.453482
600.238	84.836254
600.455	120.383501
600.673	214.581114
600.891	46.020488
601.109	38.805761
601.326	37.623330
601.544	36.711942
601.762	36.584713
601.979	36.464130
602.197	36.279270
602.415	36.444077
602.632	36.653173
602.850	36.444304
603.067	36.459405
603.285	36.736756
603.502	37.051918
603.720	37.270425
603.938	37.581048
604.155	37.775910
604.372	38.038681
604.590	38.186733
604.807	38.385072
605.025	38.612536
605.242	38.993598
605.460	39.098861
605.677	39.044282
605.894	39.075288
606.112	39.136345
606.329	39.322315
606.546	39.634014
606.764	39.808865
606.981	40.022646
607.198	40.147658
607.415	40.223582
607.633	40.548009
607.850	40.912968
608.067	41.167963
608.284	41.446235
608.501	41.700791
608.718	41.939598
608.935	42.038086
609.153	42.141745
609.370	42.288252
609.587	42.433271
609.804	42.739244
610.021	42.763463
610.238	42.839886
610.455	43.021502
610.672	43.201458
610.889	43.272369
611.106	43.254759
611.323	43.379187
611.540	43.825883
611.756	44.187143
611.973	44.391611
612.190	44.369119
612.407	44.555949
612.624	44.800455
612.841	45.042786
613.057	45.247111
613.274	45.450624
613.491	45.830201
613.708	46.340521
613.925	46.391642
614.141	46.393022
614.358	46.542842
614.575	46.869151
614.791	47.173191
615.008	47.496051
615.225	47.793061
615.441	47.910857
615.658	48.124671
615.874	48.150481
616.091	48.051884
616.307	48.304651
616.524	48.695776
616.740	49.028990
616.957	49.264704
617.173	49.362261
617.390	49.472535
617.606	49.464564
617.823	49.634133
618.039	49.893248
618.256	50.314624
618.472	50.678753
618.688	50.835845
618.905	50.890788
619.121	50.987558
619.337	51.108423
619.554	51.275210
619.770	51.263894
619.986	51.336770
620.202	51.510386
620.419	51.753945
620.635	51.999884
620.851	52.188892
621.067	52.238885
621.283	52.370220
621.499	52.582575
621.716	52.731965
621.932	52.889936
622.148	53.161487
622.364	53.322463
622.580	53.394017
622.796	53.512352
623.012	53.537557
623.228	53.629937
623.444	53.840726
623.660	54.142875
623.876	54.382038
624.092	54.723234
624.308	55.114773
624.524	55.302232
624.740	55.541326
624.955	55.800437
625.171	55.856170
625.387	55.828800
625.603	55.970523
625.819	56.277504
626.034	56.406859
626.250	56.407870
626.466	56.457239
626.682	56.496112
626.897	56.627375
627.113	56.859063
627.329	57.128403
627.544	57.464144
627.760	57.922309
627.976	58.122731
628.191	58.244184
628.407	58.600972
628.623	59.068485
628.838	59.433214
629.054	59.735694
629.269	60.044012
629.485	60.258187
629.700	60.513418
629.916	60.903360
630.131	61.123701
630.347	61.278946
630.562	61.395059
630.777	61.402544
630.993	61.480160
631.208	61.426372
631.424	61.389546
631.639	61.476035
631.854	61.642806
632.070	61.745815
632.285	61.783065
632.500	61.828530
632.715	61.950875
632.931	62.115490
633.146	62.182877
633.361	62.200663
633.576	62.407546
633.791	62.623110
634.007	62.837529
634.222	62.920659
634.437	62.947298
634.652	62.918553
634.867	62.885437
635.082	63.029472
635.297	63.205086
635.512	63.425315
635.727	63.565774
635.942	63.711133
636.157	64.017486
636.372	64.258219
636.587	64.369491
636.802	64.411092
637.017	64.470944
637.232	64.611519
637.447	64.796673
637.662	65.156645
637.876	65.550170
638.091	65.657662
638.306	65.789045
638.521	65.748765
638.736	65.676224
638.951	65.778837
639.165	65.960619
639.380	66.220556
639.595	66.423773
639.809	66.447602
640.024	66.335857
640.239	66.154835
640.453	66.207175
640.668	66.365432
640.883	66.517144
641.097	66.573503
641.312	66.792504
641.526	67.036713
641.741	67.001013
641.955	66.960311
642.170	67.090488
642.384	67.174631
642.599	67.181664
642.813	67.453527
643.028	67.607846
643.242	67.727068
643.457	67.938578
643.671	68.077060
643.885	68.172184
644.100	68.298819
644.314	68.567930
644.528	68.716676
644.743	68.782543
644.957	68.966973
645.171	69.009094
645.386	68.918805
645.600	68.945006
645.814	69.025866
646.028	69.098930
646.242	69.021467
646.457	68.924527
646.671	68.893631
646.885	69.081181
647.099	69.349703
647.313	69.608080
647.527	69.775310
647.741	70.090982
647.955	70.420478
648.169	70.725539
648.383	70.883072
648.597	71.020351
648.811	71.186695
649.025	71.200425
649.239	71.032018
649.453	70.878411
649.667	70.675285
649.881	70.788410
650.095	70.960369
650.309	70.928794
650.523	70.980733
650.737	71.098858
650.950	71.407362
651.164	71.859419
651.378	72.248525
651.592	72.402413
651.805	72.537231
652.019	72.832966
652.233	72.969986
652.447	72.896725
652.660	72.986358
652.874	73.063726
653.088	73.231104
653.301	73.325878
653.515	73.106624
653.728	72.828140
653.942	72.756633
654.156	72.753094
654.369	72.582727
654.583	72.345412
654.796	72.463378
655.010	72.610652
655.223	72.616178
655.437	72.365393
655.650	72.128554
655.863	72.152366
656.077	72.248072
656.290	72.424786
656.504	72.594222
656.717	72.877295
656.930	73.099235
657.144	73.008282
657.357	73.028502
657.570	73.217876
657.783	73.450893
657.997	73.684308
658.210	73.946179
658.423	74.208893
658.636	74.404045
658.849	74.453412
659.063	74.514600
659.276	74.653149
659.489	74.830067
659.702	74.932024
659.915	74.928011
660.128	74.994125
660.341	75.050361
660.554	75.129286
660.767	75.344248
660.980	75.594269
661.193	75.733427
661.406	75.998432
661.619	76.432558
661.832	76.641961
662.045	76.576186
662.258	76.519404
662.471	76.602150
662.684	76.796949
662.897	76.829720
663.110	76.578462
663.322	76.370874
663.535	76.333116
663.748	76.192527
663.961	75.932926
664.174	75.683367
664.386	75.569079
664.599	75.593010
664.812	75.476525
665.024	75.217699
665.237	74.981101
665.450	74.982989
665.662	75.136779
665.875	75.165567
666.088	75.100671
666.300	75.058208
666.513	75.223842
666.725	75.517990
666.938	75.556939
667.150	75.473772
667.363	75.641926
667.575	75.973590
667.788	76.268409
668.000	76.379488
668.213	76.646042
668.425	76.785897
668.638	76.660992
668.850	76.514618
669.062	76.303519
669.275	76.450080
669.487	76.800371
669.699	76.975223
669.912	76.980824
670.124	76.828344
670.336	76.593124
670.548	76.311047
670.761	76.080743
670.973	76.054962
671.185	76.218470
671.397	76.340760
671.609	76.397398
671.822	76.480688
672.034	76.552843
672.246	76.669325
672.458	76.958626
672.670	77.358345
672.882	77.688714
673.094	77.968765
673.306	78.307775
673.518	78.497744
673.730	78.512354
673.942	78.374333
674.154	78.290049
674.366	78.383478
674.578	78.503527
674.790	78.375652
675.002	78.159936
675.214	78.051006
675.425	78.070949
675.637	78.012909
675.849	77.879453
676.061	77.735240
676.273	77.691763
676.484	77.681158
676.696	77.673434
676.908	77.855519
677.120	78.148353
677.331	78.404929
677.543	78.629464
677.755	78.789720
677.966	78.828232
678.178	78.893540
678.389	79.048552
678.601	79.248514
678.813	79.294048
679.024	79.160515
679.236	78.850075
679.447	78.560403
679.659	78.152119
679.870	77.621914
680.082	77.182944
680.293	76.907202
680.505	76.852080
680.716	76.917761
680.927	76.749082
681.139	76.582585
681.350	76.559878
681.562	76.544392
681.773	76.595590
681.984	76.847516
682.196	77.100196
682.407	77.329845
682.618	77.340089
682.829	76.953893
683.041	76.794056
683.252	77.135668
683.463	77.539134
683.674	77.704710
683.885	77.917750
684.097	78.016947
684.308	77.985077
684.519	78.003976
684.730	78.034527
684.941	78.156558
685.152	78.553527
685.363	78.811437
685.574	78.615179
685.785	78.409611
685.996	78.382208
686.207	78.222939
686.418	78.292082
686.629	78.412208
686.840	78.441571
687.051	78.293506
687.262	78.169946
687.473	78.091841
687.684	77.997893
687.894	78.054794
688.105	78.231658
688.316	78.290997
688.527	78.412015
688.738	78.321282
688.948	78.142819
689.159	78.181514
689.370	78.361903
689.580	78.641434
689.791	78.773918
690.002	78.727857
690.212	78.744377
690.423	78.648736
690.634	78.685464
690.844	78.820586
691.055	79.015350
691.266	79.270686
691.476	79.521239
691.687	79.875743
691.897	80.285947
692.108	80.572701
692.318	80.875398
692.529	80.860284
692.739	80.720124
692.949	80.593466
693.160	80.444577
693.370	80.462559
693.581	80.690374
693.791	80.969053
694.001	81.124878
694.212	81.051077
694.422	80.803980
694.632	80.398311
694.843	80.110462
695.053	80.259405
695.263	80.471986
695.473	80.522107
695.683	80.436781
695.894	80.207439
696.104	79.816122
696.314	79.416113
696.524	79.093456
696.734	79.193288
696.944	79.547139
697.154	79.791272
697.365	79.821668
697.575	79.690927
697.785	79.775673
697.995	79.736296
698.205	79.629598
698.415	79.682537
698.625	79.740121
698.834	79.825774
699.044	79.597855
699.254	79.444991
699.464	79.408089
699.674	79.129972
699.884	78.753263
700.094	78.277382
700.304	77.858578
700.513	77.356442
700.723	76.876844
700.933	76.660346
701.143	76.536895
701.353	76.518257
701.562	76.496824
701.772	76.495732
701.982	76.783222
702.191	77.283514
702.401	77.730400
702.611	78.127756
702.820	78.516161
703.030	78.859345
703.239	79.023994
703.449	78.908269
703.659	78.803326
703.868	78.544937
704.078	78.313117
704.287	78.041278
704.497	77.672336
704.706	77.244233
704.916	76.825778
705.125	76.744963
705.334	76.614936
705.544	76.451363
705.753	76.567333
705.962	76.620629
706.172	76.652846
706.381	76.856639
706.590	77.034899
706.800	77.228955
707.009	77.550590
707.218	77.939912
707.428	77.951610
707.637	77.868527
707.846	77.895908
708.055	77.967008
708.264	78.206533
708.474	78.492419
708.683	78.446595
708.892	78.279147
709.101	78.220317
709.310	78.150792
709.519	77.939113
709.728	77.858276
709.937	77.855092
710.146	77.812361
710.355	77.760050
710.564	77.615858
710.773	77.411526
710.982	77.392852
711.191	77.364910
711.400	77.174490
711.609	76.932399
711.818	77.033349
712.027	77.237291
712.235	77.468675
712.444	77.742103
712.653	77.902482
712.862	78.097765
713.071	78.390189
713.279	78.522374
713.488	78.481170
713.697	78.374840
713.906	78.485729
714.114	78.409762
714.323	78.243644
714.532	77.942620
714.740	77.414850
714.949	77.161631
715.157	77.071806
715.366	76.797832
715.575	76.612547
715.783	76.527482
715.992	76.286363
716.200	75.823505
716.409	75.331583
716.617	74.851527
716.826	74.657261
717.034	74.859732
717.242	74.923125
717.451	74.699871
717.659	74.592307
717.868	74.633176
718.076	74.983675
718.284	75.525222
718.493	75.979924
718.701	76.374533
718.909	76.660531
719.118	76.695030
719.326	76.473388
719.534	76.296838
719.742	76.249537
719.951	76.357237
720.159	76.364256
720.367	76.044075
720.575	75.573428
720.783	75.329953
720.991	75.414956
721.199	75.547697
721.408	75.678621
721.616	75.825213
721.824	75.874121
722.032	75.958599
722.240	75.906946
722.448	75.838012
722.656	75.878442
722.864	76.097381
723.072	76.278930
723.280	76.096738
723.487	75.896185
723.695	75.576843
723.903	75.315478
724.111	75.163913
724.319	75.086217
724.527	74.978082
724.735	74.875158
724.942	74.772729
725.150	74.567039
725.358	74.232322
725.566	74.176717
725.773	74.308944
725.981	74.432929
726.189	74.390665
726.396	74.238618
726.604	74.177591
726.812	74.270884
727.019	74.300455
727.227	74.172487
727.435	74.191394
727.642	74.292508
727.850	74.216114
728.057	73.912173
728.265	73.686429
728.472	73.523867
728.680	73.348496
728.887	73.154725
729.095	72.944649
729.302	72.715047
729.509	72.577812
729.717	72.507668
729.924	72.564249
730.132	72.889701
730.339	73.181516
730.546	73.449817
730.753	73.621823
730.961	73.662294
731.168	73.466436
731.375	73.133965
731.583	72.793163
731.790	72.546885
731.997	72.343504
732.204	72.121717
732.411	71.730491
732.618	71.448881
732.826	71.110823
733.033	70.797812
733.240	70.516965
733.447	70.326577
733.654	70.398295
733.861	70.574649
734.068	70.674205
734.275	70.740620
734.482	70.696408
734.689	70.619084
734.896	70.510045
735.103	70.640590
735.310	70.934138
735.517	71.167206
735.724	71.176372
735.931	70.846687
736.137	70.620302
736.344	70.495226
736.551	70.259348
736.758	70.037680
736.965	69.790614
737.171	69.580552
737.378	69.391927
737.585	68.968766
737.792	68.552260
737.998	68.482364
738.205	68.647352
738.412	68.743172
738.618	68.756171
738.825	68.724874
739.032	68.692700
739.238	68.538095
739.445	68.391204
739.651	68.058972
739.858	67.922139
740.064	67.967621
740.271	67.930932
740.477	67.700404
740.684	67.331497
740.890	67.027790
741.097	66.758195
741.303	66.381061
741.510	66.098100
741.716	65.918308
741.922	65.882200
742.129	65.972213
742.335	65.988979
742.541	65.841029
742.748	65.652227
742.954	65.593962
743.160	65.588243
743.366	65.508306
743.573	65.384872
743.779	65.221921
743.985	64.930214
744.191	64.626645
744.397	64.225524
744.604	63.791237
744.810	63.583919
745.016	63.483706
745.222	63.273327
745.428	62.887333
745.634	62.575952
745.840	62.388272
746.046	62.237574
746.252	62.228971
746.458	62.326037
746.664	62.417636
746.870	62.648330
747.076	62.701059
747.282	62.706615
747.488	62.629712
747.694	62.535112
747.900	62.568515
748.105	62.602133
748.311	62.602228
748.517	62.504249
748.723	62.281510
748.929	61.843112
749.134	61.205229
749.340	60.688300
749.546	60.383841
749.752	60.266820
749.957	60.352913
750.163	60.230872
750.369	59.979589
750.574	59.870907
750.780	59.964687
750.985	59.986927
751.191	59.950754
751.397	59.933101
751.602	59.958326
751.808	59.731537
752.013	59.390455
752.219	58.905812
752.424	58.567490
752.630	58.576776
752.835	58.395358
753.041	57.966316
753.246	57.570050
753.451	57.301944
753.657	57.115604
753.862	56.842513
754.067	56.469192
754.273	56.122095
754.478	55.946164
754.683	55.792433
754.889	55.430733
755.094	55.260704
755.299	55.042057
755.504	54.766393
755.710	54.622999
755.915	54.521722
756.120	54.260669
756.325	54.131944
756.530	54.091150
756.735	53.923708
756.940	53.795404
757.146	53.610509
757.351	53.231686
757.556	52.932260
757.761	52.590936
757.966	52.129427
758.171	51.671072
758.376	51.481247
758.581	51.353103
758.786	51.144748
758.990	50.856130
759.195	50.422146
759.400	50.021248
759.605	49.712760
759.810	49.415355
760.015	49.190933
760.220	49.167893
760.424	49.084228
760.629	48.782861
760.834	48.649592
761.039	48.617188
761.244	48.553004
761.448	48.264619
761.653	48.053699
761.858	47.951087
762.062	47.860898
762.267	47.816709
762.472	47.615247
762.676	47.208733
762.881	46.772220
763.085	46.078744
763.290	45.314236
763.494	44.678722
763.699	44.305891
763.903	43.826395
764.108	43.304078
764.312	42.879734
764.517	42.375395
764.721	41.886650
764.926	41.624453
765.130	41.511242
765.335	41.427142
765.539	41.264925
765.743	41.061279
765.948	40.880621
766.152	40.774644
766.356	40.574518
766.560	40.231511
766.765	39.984868
766.969	39.741624
767.173	39.398351
767.377	39.025568
767.582	38.758862
767.786	38.628865
767.990	38.500626
768.194	38.266055
768.398	37.926383
768.602	37.505656
768.806	37.202934
769.010	36.924574
769.215	36.619052
769.419	36.343643
769.623	36.023047
769.827	35.652351
770.031	35.138594
770.234	34.610697
770.438	34.139747
770.642	33.799394
770.846	33.646013
771.050	33.343318
771.254	32.962742
771.458	32.578783
771.662	32.256581
771.866	31.976167
772.069	31.656897
772.273	31.446628
772.477	31.084565
772.681	30.729542
772.885	30.236518
773.088	29.648112
773.292	29.072655
773.496	28.606928
773.699	28.190071
773.903	27.748663
774.107	27.230028
774.310	26.644077
774.514	26.110105
774.717	25.841518
774.921	25.524381
775.124	25.228798
775.328	24.999442
775.531	24.757699
775.735	24.393270
775.938	24.101257
776.142	23.855702
776.345	23.594587
776.549	23.329612
776.752	23.032571
776.956	22.695127
777.159	22.287637
777.362	21.890042
777.566	21.417040
777.769	21.119918
777.972	20.872709
778.176	20.529678
778.379	20.163885
778.582	19.904634
778.785	19.627876
778.989	19.394801
779.192	19.064831
779.395	18.765697
779.598	18.516260
779.801	18.293587
780.004	17.896839
780.207	17.560959
780.411	17.306657
780.614	17.027068
780.817	16.679760
781.020	16.394753
781.223	16.059682
781.426	15.777471
781.629	15.571617
781.832	15.296270
782.035	15.054049
782.238	14.963311
782.440	14.780287
782.643	14.518437
782.846	14.292063
783.049	14.098345
783.252	13.947673
783.455	13.844767
783.658	13.686854
783.860	13.457216
784.063	13.269428
784.266	13.010709
784.469	12.744949
784.671	12.567796
784.874	12.407837
785.077	12.123699
785.279	11.881901
785.482	11.785006
785.685	11.639684
785.887	11.418006
786.090	11.289524
786.293	11.323006
786.495	11.404582
786.698	11.401419
786.900	11.232215
787.103	11.086969
787.305	11.009739
787.508	10.950993
787.710	10.784463
787.913	10.644677
788.115	10.495072
788.317	10.312597
788.520	9.955229
788.722	9.524447
788.924	9.284930
789.127	9.223114
789.329	9.114722
789.531	9.044898
789.734	8.923833
789.936	8.831552
790.138	8.637465
790.340	8.611391
790.543	8.656711
790.745	8.717353
790.947	8.773816
791.149	8.685550
791.351	8.660656
791.553	8.718270
791.756	8.725578
791.958	8.816408
792.160	8.822597
792.362	8.904978
792.564	9.002806
792.766	9.017884
792.968	9.063765
793.170	9.275726
793.372	9.407114
793.574	9.394122
793.776	9.378465
793.978	9.455141
794.180	9.430590
794.381	9.390324
794.583	9.465068
794.785	9.563041
794.987	9.660934
795.189	9.739685
795.391	9.787469
795.592	10.068092
795.794	10.333205
795.996	10.503026
796.198	10.588111
796.399	10.690447
796.601	10.928941
796.803	11.201137
797.004	11.255366
797.206	11.335134
797.407	11.574098
797.609	11.733454
797.811	11.787525
798.012	11.968675
798.214	12.087108
798.415	12.275583
798.617	12.369511
798.818	12.661824
799.020	12.804665
799.221	13.031091
799.423	13.302707
799.624	13.472221
799.826	13.806248
800.027	14.057882
800.228	14.211153
800.430	14.463522
800.631	14.683315
800.832	15.070896
801.034	15.190215
801.235	15.286005
801.436	15.490495
801.637	15.624707
801.839	15.750985
802.040	15.837870
802.241	15.907687
802.442	16.010513
802.643	16.265974
802.844	16.395371
803.046	16.583641
803.247	16.798088
803.448	17.028464
803.649	17.267957
803.850	17.679326
804.051	17.955090
804.252	18.223988
804.453	18.522700
804.654	18.854469
804.855	19.081810
805.056	19.552013
805.257	19.861256
805.458	20.216279
805.659	20.645967
805.859	21.067458
806.060	21.276452
806.261	21.683222
806.462	21.924337
806.663	22.110017
806.864	22.401579
807.064	22.696819
807.265	22.899503
807.466	23.119560
807.667	23.291981
807.867	23.489828
808.068	23.713192
808.269	24.056683
808.469	24.338467
808.670	24.670879
808.870	25.133140
809.071	25.440591
809.272	25.674403
809.472	25.922609
809.673	26.244178
809.873	26.505385
810.074	26.786015
810.274	27.007434
810.475	27.193778
810.675	27.334687
810.876	27.504998
811.076	27.697932
811.276	27.764992
811.477	27.953027
811.677	28.079122
811.878	28.177841
812.078	28.474936
812.278	28.815319
812.479	29.143984
812.679	29.308198
812.879	29.432082
813.079	29.671442
813.280	29.786246
813.480	29.959999
813.680	30.032132
813.880	30.286891
814.080	30.462781
814.280	30.560572
814.480	30.574505
814.681	30.647650
814.881	30.901126
815.081	31.225198
815.281	31.504740
815.481	31.810315
815.681	32.313157
815.881	32.851636
816.081	33.302652
816.281	33.846077
816.481	34.395421
816.681	34.751736
816.880	35.030223
817.080	35.307462
817.280	35.616025
817.480	35.943706
817.680	36.369840
817.880	36.647758
818.080	36.784962
818.279	36.841616
818.479	36.906304
818.679	37.002280
818.879	37.284924
819.078	37.576073
819.278	37.926132
819.478	38.170101
819.677	38.348908
819.877	38.628193
820.077	38.998240
820.276	39.554126
820.476	40.103414
820.675	40.490052
820.875	40.737104
821.074	40.837723
821.274	41.059623
821.473	41.269291
821.673	41.735744
821.872	42.246215
822.072	42.476672
822.271	42.618968
822.471	42.680111
822.670	42.585357
822.869	42.663925
823.069	42.726939
823.268	42.976141
823.467	43.188549
823.667	43.495046
823.866	43.441210
824.065	43.515810
824.265	43.735001
824.464	44.156056
824.663	44.664721
824.862	45.223668
825.061	45.570941
825.261	45.957207
825.460	46.259217
825.659	46.445833
825.858	46.462654
826.057	46.753265
826.256	46.820922
826.455	46.985343
826.654	47.075583
826.853	47.072206
827.052	47.233964
827.251	47.562392
827.450	47.919782
827.649	48.225037
827.848	48.453547
828.047	48.578564
828.246	48.720847
828.445	49.071026
828.644	49.389923
828.843	49.404371
829.041	49.546675
829.240	49.645102
829.439	49.750795
829.638	49.825547
829.836	49.876296
830.035	49.904784
830.234	50.079532
830.433	50.203480
830.631	50.035621
830.830	49.767236
831.029	49.825577
831.227	49.793897
831.426	49.682007
831.624	49.619821
831.823	49.624408
832.022	49.616951
832.220	49.728669
832.419	49.912078
832.617	50.193290
832.816	50.522638
833.014	50.695737
833.213	50.682925
833.411	50.788425
833.609	51.111038
833.808	51.515191
834.006	51.977935
834.205	52.527840
834.403	53.146457
834.601	53.637820
834.800	53.787909
834.998	53.980899
835.196	54.369631
835.394	54.943294
835.593	55.504898
835.791	55.725702
835.989	55.861922
836.187	55.988524
836.385	55.792938
836.584	55.621135
836.782	55.579872
836.980	55.631657
837.178	55.838464
837.376	55.936124
837.574	55.878075
837.772	55.929983
837.970	56.071678
838.168	56.222479
838.366	56.228781
838.564	56.529449
838.762	56.663712
838.960	56.485058
839.158	56.350758
839.356	56.207240
839.554	56.199905
839.752	56.158731
839.949	55.853335
840.147	55.739247
840.345	55.682768
840.543	55.751942
840.741	56.062513
840.938	56.363519
841.136	56.819753
841.334	57.443024
841.532	57.885555
841.729	58.153464
841.927	58.343106
842.125	58.693196
842.322	59.058737
842.520	59.273119
842.718	59.426919
842.915	59.205520
843.113	59.021168
843.310	58.845972
843.508	58.655507
843.705	58.760036
843.903	58.928786
844.100	59.335003
844.298	59.697032
844.495	59.846134
844.693	59.670028
844.890	59.459264
845.087	59.449779
845.285	59.531916
845.482	59.607415
845.679	59.670707
845.877	59.755780
846.074	60.041807
846.271	60.366173
846.469	60.515817
846.666	60.524253
846.863	60.910392
847.060	61.269480
847.257	61.509473
847.455	61.803375
847.652	62.220507
847.849	62.655720
848.046	62.905657
848.243	62.763886
848.440	62.571969
848.637	62.580036
848.834	62.806924
849.031	62.803308
849.228	62.856417
849.425	62.680104
849.622	62.560988
849.819	62.497338
850.016	62.583268
850.213	62.840047
850.410	63.287947
850.607	63.628354
850.804	63.847290
851.001	63.974619
851.198	64.352299
851.394	64.468608
851.591	64.908154
851.788	65.110632
851.985	65.149078
852.181	64.856695
852.378	64.361772
852.575	64.020404
852.772	63.584345
852.968	63.176894
853.165	63.009534
853.362	63.100697
853.558	63.518414
853.755	64.034071
853.951	64.420618
854.148	64.706492
854.345	64.963559
854.541	65.293904
854.738	65.446649
854.934	65.698966
855.131	66.006167
855.327	66.309933
855.523	66.299380
855.720	66.195526
855.916	65.941999
856.113	65.815928
856.309	65.853532
856.505	65.989417
856.702	65.858992
856.898	65.670856
857.094	65.545453
857.291	65.505284
857.487	65.608314
857.683	65.510300
857.879	65.417433
858.076	65.447060
858.272	65.691822
858.468	65.900711
858.664	66.179088
858.860	66.361702
859.056	66.537296
859.253	66.707850
859.449	66.547176
859.645	66.114602
859.841	66.147106
860.037	66.419761
860.233	66.585383
860.429	66.637308
860.625	66.706856
860.821	66.706096
861.017	67.017654
861.213	67.323087
861.409	67.571482
861.604	68.261592
861.800	68.749410
861.996	68.915471
862.192	68.844221
862.388	68.765548
862.584	68.591462
862.779	68.618835
862.975	68.839773
863.171	68.665486
863.367	68.425508
863.562	68.136241
863.758	67.751175
863.954	67.711386
864.149	67.731266
864.345	67.295804
864.541	66.757174
864.736	66.593929
864.932	66.348666
865.127	65.782911
865.323	65.440441
865.518	65.370889
865.714	65.588550
865.910	65.599837
866.105	65.339141
866.300	65.388347
866.496	65.947982
866.691	66.522695
866.887	66.887908
867.082	66.868151
867.277	67.069491
867.473	67.360302
867.668	67.686127
867.864	67.673329
868.059	67.533797
868.254	67.687260
868.449	67.696327
868.645	67.761444
868.840	67.822537
869.035	67.742370
869.230	67.978138
869.425	68.185860
869.621	68.335914
869.816	68.292204
870.011	68.304245
870.206	68.668179
870.401	68.967790
870.596	69.159275
870.791	68.988662
870.986	68.721800
871.181	68.580269
871.376	68.430427
871.571	68.469015
871.766	68.660046
871.961	68.741533
872.156	68.924416
872.351	69.131660
872.546	69.235430
872.741	69.263830
872.936	69.447970
873.130	69.918599
873.325	70.245740
873.520	70.397299
873.715	70.416656
873.910	70.446731
874.104	70.514230
874.299	70.575254
874.494	70.368152
874.688	70.168123
874.883	70.024091
875.078	69.999299
875.272	69.866541
875.467	69.385694
875.662	69.188292
875.856	69.025132
876.051	68.802413
876.245	68.834939
876.440	69.011722
876.634	69.367067
876.829	69.563105
877.023	69.673482
877.218	69.762107
877.412	69.956595
877.607	70.506025
877.801	70.856030
877.995	71.411438
878.190	72.091800
878.384	72.371769
878.578	72.313100
878.773	72.192000
878.967	72.148211
879.161	72.235509
879.356	72.267629
879.550	72.673399
879.744	73.370243
879.938	73.784539
880.133	73.801497
880.327	73.512382
880.521	73.232385
880.715	73.199799
880.909	73.331498
881.103	73.659100
881.297	73.879780
881.491	73.929683
881.685	73.466781
881.880	72.549465
882.073	72.478310
882.267	72.975952
882.461	73.454519
882.655	73.972524
882.849	74.249309
883.043	74.047108
883.237	73.953271
883.431	73.882030
883.625	74.066105
883.819	74.431898
884.013	75.195867
884.206	75.502280
884.400	75.084015
884.594	74.656342
884.788	74.796881
884.982	74.994711
885.175	75.473147
885.369	75.702778
885.563	75.783419
885.756	75.748202
885.950	75.597646
886.144	75.562008
886.337	75.352718
886.531	75.423961
886.724	75.966270
886.918	76.012640
887.112	75.931553
887.305	75.648142
887.499	75.294636
887.692	75.073647
887.885	74.959465
888.079	75.162110
888.272	75.232094
888.466	75.438283
888.659	75.803507
888.853	76.036509
889.046	76.082082
889.239	76.084219
889.433	76.489129
889.626	77.019510
889.819	77.472204
890.013	77.546834
890.206	77.340200
890.399	77.186109
890.592	77.084958
890.785	76.591257
890.979	76.085434
891.172	75.788266
891.365	75.358197
891.558	74.836919
891.751	74.291213
891.944	73.924165
892.137	73.960271
892.330	74.166365
892.524	73.998985
892.717	73.591420
892.910	73.483453
893.103	73.390318
893.296	73.424286
893.488	74.018611
893.681	74.582081
893.874	74.957272
894.067	75.045195
894.260	75.233693
894.453	74.807770
894.646	74.920217
894.839	75.463280
895.031	75.752211
895.224	75.843356
895.417	76.315595
895.610	76.531908
895.802	76.484575
895.995	76.679347
896.188	76.959577
896.381	77.091141
896.573	77.609903
896.766	77.562861
896.958	77.114520
897.151	76.832896
897.344	76.765820
897.536	76.562227
897.729	76.549778
897.921	76.231640
898.114	75.566121
898.306	75.360829
898.499	75.341274
898.691	75.067882
898.884	75.060012
899.076	75.495343
899.269	75.999383
899.461	76.286935
899.653	76.249115
899.846	76.167784
900.038	76.318305
900.230	76.620177
900.423	76.867196
900.615	76.892591
900.807	77.508422
901.000	78.070474
901.192	77.874965
901.384	77.575469
901.576	77.647014
901.768	77.741635
901.961	77.481595
902.153	77.388203
902.345	77.093382
902.537	76.541347
902.729	76.289193
902.921	76.155135
903.113	75.924741
903.305	76.176684
903.497	76.309634
903.689	76.019608
903.881	75.745972
904.073	75.567709
904.265	75.498858
904.457	75.921248
904.649	76.301436
904.841	76.294045
905.033	76.086426
905.224	76.048326
905.416	75.769808
905.608	75.386911
905.800	75.141159
905.992	74.971981
906.183	75.746680
906.375	76.563000
906.567	77.342791
906.759	77.934496
906.950	78.314926
907.142	78.461556
907.334	78.444197
907.525	78.525167
907.717	79.100113
907.909	79.789245
908.100	80.017028
908.292	79.412581
908.483	78.597195
908.675	77.869223
908.866	77.536566
909.058	77.228269
909.249	77.270752
909.441	77.440395
909.632	77.527182
909.824	77.239336
910.015	76.863235
910.206	77.025662
910.398	77.104368
910.589	77.200599
910.780	77.168089
910.972	77.090317
911.163	77.304205
911.354	76.844524
911.546	76.335906
911.737	76.161537
911.928	76.181233
912.119	75.995600
912.310	75.844345
912.502	75.893791
912.693	75.871859
912.884	76.057504
913.075	75.785040
913.266	75.610708
913.457	75.958087
913.648	76.389639
913.839	76.587420
914.030	76.778257
914.221	77.157872
914.412	77.483010
914.603	77.971824
914.794	78.462313
914.985	78.743872
915.176	79.373187
915.367	79.677980
915.558	79.678494
915.749	79.527314
915.940	79.514353
916.130	79.564460
916.321	79.724440
916.512	79.443559
916.703	79.319178
916.893	79.105212
917.084	78.318129
917.275	77.514683
917.466	76.801121
917.656	76.430364
917.847	76.319515
918.038	75.869258
918.228	75.306261
918.419	75.122066
918.609	75.537901
918.800	75.531544
918.990	76.051467
919.181	77.077527
919.372	78.129982
919.562	79.083108
919.753	79.824647
919.943	80.480199
920.133	81.033749
920.324	81.432733
920.514	81.224751
920.705	80.885547
920.895	80.584086
921.085	79.686996
921.276	79.230329
921.466	78.911451
921.656	78.452910
921.847	77.874931
922.037	77.637466
922.227	78.070607
922.417	78.359633
922.608	79.020842
922.798	79.419764
922.988	79.449687
923.178	79.857122
923.368	79.952157
923.558	80.048457
923.748	80.506501
923.939	80.730260
924.129	80.639167
924.319	79.909415
924.509	79.645919
924.699	78.976715
924.889	78.169267
925.079	77.735175
925.269	77.798139
925.459	77.920987
925.648	77.638562
925.838	77.250099
926.028	77.429142
926.218	77.627388
926.408	77.899955
926.598	77.531279
926.788	77.616247
926.977	78.060916
927.167	78.356502
927.357	78.371576
927.547	78.320136
927.736	78.434099
927.926	78.682143
928.116	78.746553
928.305	78.684988
928.495	78.643213
928.685	79.163172
928.874	79.449985
929.064	79.377765
929.253	79.531507
929.443	79.568694
929.633	79.865352
929.822	79.907208
930.012	80.098724
930.201	80.019154
930.391	79.816104
930.580	80.037503
930.769	80.494520
930.959	80.563031
931.148	80.949680
931.338	81.082586
931.527	81.130754
931.716	80.889613
931.906	80.644798
932.095	80.621834
932.284	80.819015
932.474	80.781523
932.663	80.737530
932.852	80.107026
933.041	79.520024
933.230	79.193862
933.420	79.028216
933.609	78.902408
933.798	78.840805
933.987	79.110429
934.176	78.912997
934.365	78.791891
934.554	78.907874
934.743	78.942812
934.932	79.290433
935.121	79.726843
935.310	79.823977
935.499	79.773261
935.688	79.646909
935.877	79.075320
936.066	78.435466
936.255	78.080388
936.444	78.220718
936.633	78.537608
936.822	78.562716
937.010	78.212998
937.199	78.215346
937.388	78.176383
937.577	78.303851
937.766	78.693235
937.954	79.769373
938.143	80.839064
938.332	81.642806
938.520	81.919916
938.709	81.734545
938.898	81.467079
939.086	81.809188
939.275	81.731358
939.464	81.677129
939.652	82.043138
939.841	81.912852
940.029	81.772427
940.218	81.867515
940.406	81.410014
940.595	80.780021
940.783	80.461955
940.972	80.616541
941.160	80.647116
941.349	81.211847
941.537	81.604912
941.725	81.078806
941.914	81.260026
942.102	81.411249
942.290	81.171769
942.479	81.681988
942.667	82.363135
942.855	82.778601
943.043	82.807119
943.232	82.683108
943.420	82.410269
943.608	82.235991
943.796	82.595438
943.984	82.432634
944.172	81.910945
944.361	81.742424
944.549	81.854365
944.737	81.627707
944.925	81.482189
945.113	81.456086
945.301	81.580182
945.489	81.669229
945.677	81.703502
945.865	81.703678
946.053	82.015829
946.241	82.616423
946.429	82.627861
946.617	82.021133
946.805	81.542610
946.992	81.569954
947.180	81.722524
947.368	81.698406
947.556	81.639981
947.744	82.068196
947.931	82.399210
948.119	82.186336
948.307	81.614716
948.495	81.775532
948.682	82.198046
948.870	82.267937
949.058	81.642753
949.245	81.363209
949.433	80.920517
949.621	80.741759
949.808	80.468696
949.996	79.889219
950.183	79.324716
950.371	79.605141
950.558	79.661554
950.746	79.219017
950.933	79.604425
951.121	80.411765
951.308	81.133619
951.496	81.895744
951.683	81.774082
951.870	81.630918
952.058	82.258254
952.245	83.065345
952.433	83.517882
952.620	83.720822
952.807	83.850961
952.994	83.362821
953.182	83.612679
953.369	83.128957
953.556	82.924937
953.743	83.060784
953.931	82.964055
954.118	82.558166
954.305	82.249505
954.492	81.624975
954.679	80.769407
954.866	80.357927
955.053	80.581778
955.240	79.913163
955.427	79.689665
955.615	79.192235
955.802	78.950796
955.989	79.066154
956.175	79.027979
956.362	79.450543
956.549	79.660515
956.736	80.590706
956.923	81.337398
957.110	82.221399
957.297	83.213071
957.484	83.899688
957.671	84.652545
957.857	85.756654
958.044	86.096013
958.231	86.155831
958.418	86.113393
958.604	85.681769
958.791	85.327634
958.978	85.540820
959.165	84.874654
959.351	84.137623
959.538	83.984816
959.724	83.951433
959.911	83.082612
960.098	82.391190
960.284	82.471007
960.471	82.013401
960.657	82.360759
960.844	82.159567
961.030	81.793674
961.217	81.503687
961.403	81.433951
961.590	81.380889
961.776	81.536670
961.963	81.991158
962.149	82.393410
962.335	82.599289
962.522	82.825312
962.708	81.723390
962.894	81.218897
963.081	80.917440
963.267	81.225045
963.453	81.759073
963.639	82.048946
963.826	81.798275
964.012	81.576820
964.198	81.797071
964.384	81.379093
964.570	81.004525
964.756	81.222280
964.943	81.722900
965.129	81.862654
965.315	81.817095
965.501	81.354761
965.687	80.844327
965.873	80.618672
966.059	80.596424
966.245	80.380608
966.431	80.778405
966.617	81.120199
966.803	81.807439
966.989	82.263097
967.174	83.027745
967.360	83.480121
967.546	83.674991
967.732	83.578375
967.918	83.468848
968.104	83.655574
968.289	83.513552
968.475	82.913137
968.661	82.735401
968.847	82.812311
969.032	82.880023
969.218	82.506306
969.404	82.415517
969.589	82.785410
969.775	83.202732
969.961	83.440086
970.146	83.567348
970.332	83.799905
970.517	84.160487
970.703	84.431859
970.888	85.063315
971.074	85.185604
971.260	85.041693
971.445	84.845777
971.630	84.454182
971.816	84.153506
972.001	84.174218
972.187	84.200590
972.372	84.371375
972.557	84.138355
972.743	83.877179
972.928	83.416164
973.113	83.164981
973.299	83.313391
973.484	83.131641
973.669	82.763061
973.854	82.967361
974.040	83.588996
974.225	84.184147
974.410	84.029165
974.595	83.779946
974.780	83.829444
974.965	83.713978
975.151	83.681901
975.336	83.831532
975.521	84.607092
975.706	85.027704
975.891	84.562920
976.076	83.981542
976.261	83.652578
976.446	83.409376
976.631	84.100294
976.816	84.674690
977.001	84.777336
977.186	84.800476
977.370	84.706278
977.555	84.529789
977.740	84.485440
977.925	85.022633
978.110	84.727567
978.295	83.909566
978.479	84.563885
978.664	85.095103
978.849	84.793505
979.034	85.297221
979.218	85.579349
979.403	85.439424
979.588	84.910851
979.772	85.261184
979.957	85.183821
980.141	85.143706
980.326	84.947180
980.511	84.387806
980.695	83.650836
980.880	83.095712
981.064	82.658602
981.249	82.709396
981.433	82.358305
981.618	82.840931
981.802	82.716976
981.987	82.729432
982.171	83.020395
982.355	83.545944
982.540	84.229216
982.724	85.077285
982.908	85.966146
983.093	85.839238
983.277	85.086429
983.461	85.659091
983.646	85.657475
983.830	85.518175
984.014	85.428672
984.198	85.460745
984.382	84.956268
984.567	84.390099
984.751	84.193406
984.935	84.208292
985.119	84.497782
985.303	84.906040
985.487	85.296437
985.671	85.495204
985.855	86.118375
986.039	86.562092
986.223	87.229144
986.407	88.639471
986.591	89.118833
986.775	88.667572
986.959	88.437329
987.143	88.146758
987.327	87.531111
987.511	86.513744
987.695	85.589575
987.879	85.073592
988.062	85.317520
988.246	84.833218
988.430	84.400853
988.614	84.898278
988.797	86.000548
988.981	86.528391
989.165	86.871276
989.349	88.360618
989.532	89.444654
989.716	90.260286
989.900	90.345381
990.083	89.636308
990.267	89.480543
990.450	89.153704
990.634	88.188498
990.817	86.832676
991.001	86.182591
991.184	85.723784
991.368	85.152300
991.551	85.410006
991.735	85.743155
991.918	86.267012
992.102	86.594925
992.285	87.010770
992.469	87.350889
992.652	87.798041
992.835	88.894793
993.019	89.200117
993.202	89.032949
993.385	88.631341
993.568	88.905963
993.752	88.698143
993.935	87.801059
994.118	87.643899
994.301	87.629253
994.484	87.744283
994.668	88.006373
994.851	88.143851
995.034	88.459993
995.217	89.324970
995.400	90.249462
995.583	89.285251
995.766	89.426083
995.949	89.697406
996.132	90.092720
996.315	90.270647
996.498	90.585082
996.681	90.427690
996.864	89.780569
997.047	89.648787
997.230	89.535565
997.413	88.546861
997.596	88.807047
997.778	88.596773
997.961	89.426745
998.144	89.427762
998.327	89.137593
998.510	88.821109
998.692	88.357791
998.875	88.511566
999.058	89.145757
999.241	89.541408
999.423	90.430566
999.606	90.603653
999.789	90.344196
999.971	89.592510
1000.154	89.769457
1000.336	89.951916
1000.519	89.092712
1000.701	89.344410
1000.884	89.789711
1001.067	89.604303
1001.249	88.831417
1001.431	88.468405
1001.614	88.616579
1001.796	88.613281
1001.979	88.885643
1002.161	88.996953
1002.344	88.876473
1002.526	88.627913
1002.708	88.574416
1002.891	87.337587
1003.073	86.666668
1003.255	86.680283
1003.438	86.483578
1003.620	85.857963
1003.802	86.095093
1003.984	86.570720
1004.166	86.729891
1004.349	87.389833
1004.531	89.129953
1004.713	90.219557
1004.895	91.516223
1005.077	91.673900
1005.259	92.309427
1005.441	92.401399
1005.623	93.050085
1005.805	93.511929
1005.987	93.583569
1006.169	92.911185
1006.351	91.539531
1006.533	90.357582
1006.715	89.754721
1006.897	88.966451
1007.079	88.986056
1007.261	89.120472
1007.443	89.756297
1007.625	89.631314
1007.806	89.734339
1007.988	89.129342
1008.170	89.072942
1008.352	89.664427
1008.534	90.100471
1008.715	89.994366
1008.897	90.694710
1009.079	90.643883
1009.260	90.164222
1009.442	89.516673
1009.624	89.213221
1009.805	88.126541
1009.987	87.913158
1010.169	87.616128
1010.350	88.540695
1010.532	88.651917
1010.713	88.429589
1010.895	87.968423
1011.076	88.672843
1011.258	89.430081
1011.439	89.835918
1011.621	90.514002
1011.802	91.458093
1011.983	91.661821
1012.165	92.057076
1012.346	91.040254
1012.527	91.152077
1012.709	90.872794
1012.890	91.506869
1013.071	90.830549
1013.253	90.639930
1013.434	91.295570
1013.615	91.514896
1013.796	91.682843
1013.978	92.031356
1014.159	92.742257
1014.340	93.857097
1014.521	94.153655
1014.702	94.962035
1014.883	94.276274
1015.064	93.846377
1015.245	93.319858
1015.427	93.250795
1015.608	92.431603
1015.789	92.271157
1015.970	92.700038
1016.151	93.239211
1016.332	93.761348
1016.512	93.685755
1016.693	93.719009
1016.874	93.826483
1017.055	94.712989
1017.236	95.085191
1017.417	93.708857
1017.598	93.607387
1017.779	93.287420
1017.959	92.679425
1018.140	91.271486
1018.321	89.994377
1018.502	90.415794
1018.682	90.430332
1018.863	90.435662
1019.044	90.777609
1019.224	90.806333
1019.405	91.702723
1019.586	92.161446
1019.766	91.734834
1019.947	91.553865
1020.127	91.624140
1020.308	91.066765
1020.488	89.875573
1020.669	89.557161
1020.849	89.588142
1021.030	89.012498
1021.210	88.781515
1021.391	88.156668
1021.571	87.011248
1021.752	87.145698
1021.932	87.073957
1022.112	87.437406
1022.293	88.173322
1022.473	89.238533
1022.653	89.942914
1022.834	90.481647
1023.014	90.601997
1023.194	90.630175
1023.374	90.546670
1023.555	90.932003
1023.735	90.988431
1023.915	91.607041
1024.095	91.678366
1024.275	91.836146
1024.455	91.739356
1024.635	91.540116
1024.816	91.108381
1024.996	91.136130
1025.176	91.333863
1025.356	92.369137
1025.536	92.934711
1025.716	93.624333
1025.896	93.620256
1026.076	93.744127
1026.256	93.672253
1026.436	93.211463
1026.615	93.045499
1026.795	92.626771
1026.975	91.819057
1027.155	91.756628
1027.335	91.300264
1027.515	91.371195
1027.695	91.368439
1027.874	91.549803
1028.054	90.794636
1028.234	90.217084
1028.413	90.156789
1028.593	90.401345
1028.773	90.408388
1028.953	90.459785
1029.132	90.697633
1029.312	90.625683
1029.491	91.704709
1029.671	92.000683
1029.851	92.728019
1030.030	94.360967
1030.210	95.090079
1030.389	94.877180
1030.569	94.002990
1030.748	94.795542
1030.928	95.155380
1031.107	93.539885
1031.286	93.060150
1031.466	91.646049
1031.645	91.283577
1031.825	90.427116
1032.004	90.465633
1032.183	91.695881
1032.363	92.366339
1032.542	92.974180
1032.721	92.392935
1032.900	91.700018
1033.080	92.878553
1033.259	93.477953
1033.438	94.256258
1033.617	94.036021
1033.796	93.865794
1033.975	92.654722
1034.155	91.565364
1034.334	91.713918
1034.513	91.514537
1034.692	91.747716
1034.871	92.476019
1035.050	92.375077
1035.229	93.793680
1035.408	93.995967
1035.587	94.565077
1035.766	94.499123
1035.945	93.693946
1036.124	92.802963
1036.303	91.495533
1036.481	90.251855
1036.660	89.088985
1036.839	88.983376
1037.018	89.241398
1037.197	87.806116
1037.376	87.188605
1037.554	87.221340
1037.733	86.718388
1037.912	87.778029
1038.091	88.731915
1038.269	89.384274
1038.448	90.280063
1038.627	91.180137
1038.805	91.588952
1038.984	91.477526
1039.162	91.182918
1039.341	90.731158
1039.520	89.776819
1039.698	90.142050
1039.877	89.119353
1040.055	87.715997
1040.234	87.835977
1040.412	87.250152
1040.591	86.722419
1040.769	85.583307
1040.947	85.420934
1041.126	84.873897
1041.304	85.234493
1041.483	86.233533
1041.661	86.035644
1041.839	86.660387
1042.017	86.975380
1042.196	87.582521
1042.374	88.565271
1042.552	88.438658
1042.730	88.947660
1042.909	90.026002
1043.087	91.404031
1043.265	92.161349
1043.443	92.045337
1043.621	92.832449
1043.799	92.709369
1043.978	92.313939
1044.156	90.984900
1044.334	90.746470
1044.512	91.478592
1044.690	91.615359
1044.868	90.876624
1045.046	89.398710
1045.224	88.285996
1045.402	88.015268
1045.580	87.616663
1045.758	87.868980
1045.935	89.195809
1046.113	89.870042
1046.291	89.438163
1046.469	89.755138
1046.647	90.378320
1046.825	89.913000
1047.002	90.486594
1047.180	91.194583
1047.358	92.078357
1047.536	93.458803
1047.713	94.917375
1047.891	94.148890
1048.069	94.506136
1048.246	94.787674
1048.424	94.428556
1048.602	93.768367
1048.779	93.627194
1048.957	93.930656
1049.134	93.924425
1049.312	92.795781
1049.489	91.695320
1049.667	90.573745
1049.844	90.998511
1050.022	90.281390
1050.199	91.235504
1050.377	91.657235
1050.554	92.397578
1050.731	92.564276
1050.909	91.943996
1051.086	91.618500
1051.263	91.480213
1051.441	91.423817
1051.618	91.199687
1051.795	91.429112
1051.973	91.811162
1052.150	91.046876
1052.327	90.246941
1052.504	89.730618
1052.681	89.448486
1052.859	89.673671
1053.036	90.457440
1053.213	91.146568
1053.390	91.384568
1053.567	91.367608
1053.744	90.981116
1053.921	91.500737
1054.098	91.587876
1054.275	91.978864
1054.452	91.678289
1054.629	91.746896
1054.806	91.513308
1054.983	90.288458
1055.160	89.953374
1055.337	89.830290
1055.514	90.101378
1055.691	90.099299
1055.868	88.743119
1056.044	88.122118
1056.221	88.296298
1056.398	88.651838
1056.575	88.385179
1056.751	88.594403
1056.928	88.837657
1057.105	88.858359
1057.282	88.625875
1057.458	87.853530
1057.635	86.788070
1057.812	87.532076
1057.988	87.155149
1058.165	86.322326
1058.341	86.412345
1058.518	87.139343
1058.694	87.709934
1058.871	88.913578
1059.047	88.652824
1059.224	88.841138
1059.401	89.476024
1059.577	90.896762
1059.753	91.728716
1059.930	92.104162
1060.106	92.398517
1060.282	92.428548
1060.459	92.079629
1060.635	91.309905
1060.812	89.140906
1060.988	88.783585
1061.164	88.018063
1061.340	87.127928
1061.517	86.058843
1061.693	84.838215
1061.869	85.045944
1062.045	85.391939
1062.221	84.924856
1062.398	85.175950
1062.574	85.467587
1062.750	85.821167
1062.926	86.626895
1063.102	87.189115
1063.278	87.915572
1063.454	87.964641
1063.630	87.934969
1063.806	88.118078
1063.982	87.896801
1064.158	87.991932
1064.334	87.694210
1064.510	87.255557
1064.686	87.804052
1064.862	87.567548
1065.038	87.379508
1065.214	87.100076
1065.389	86.947883
1065.565	87.244466
1065.741	87.218867
1065.917	87.496542
1066.093	87.533031
1066.268	87.190704
1066.444	87.165020
1066.620	86.912013
1066.795	86.732302
1066.971	86.438122
1067.147	86.175832
1067.322	86.477579
1067.498	86.703828
1067.673	86.857314
1067.849	86.615171
1068.025	86.377579
1068.200	86.976850
1068.376	86.978752
1068.551	86.932327
1068.727	86.558823
1068.902	86.415231
1069.078	86.781883
1069.253	87.516150
1069.428	87.150825
1069.604	86.629992
1069.779	86.041196
1069.954	85.678914
1070.130	85.292039
1070.305	85.119721
1070.480	85.224713
1070.656	85.381553
1070.831	84.981538
1071.006	84.311539
1071.181	84.137851
1071.357	84.335378
1071.532	84.282254
1071.707	84.771011
1071.882	84.835178
1072.057	85.206650
1072.232	85.475589
1072.407	84.721514
1072.582	84.762873
1072.757	85.723590
1072.932	86.830214
1073.107	86.788508
1073.282	86.333158
1073.457	86.356194
1073.632	86.187898
1073.807	85.838334
1073.982	84.690506
1074.157	85.096835
1074.332	85.975571
1074.507	85.399668
1074.682	84.344714
1074.856	83.623477
1075.031	83.106188
1075.206	83.395643
1075.381	83.604066
1075.556	83.664489
1075.730	84.520492
1075.905	84.955135
1076.080	83.648521
1076.254	83.509647
1076.429	84.562931
1076.604	85.217490
1076.778	85.729270
1076.953	86.019058
1077.127	85.498790
1077.302	84.600238
1077.477	83.826956
1077.651	83.700255
1077.826	83.987248
1078.000	85.055352
1078.175	84.830835
1078.349	84.014871
1078.523	84.508403
1078.698	83.927854
1078.872	82.975518
1079.047	82.730015
1079.221	83.152987
1079.395	84.204705
1079.570	83.940333
1079.744	84.049899
1079.918	83.379553
1080.092	83.148695
1080.267	83.093566
1080.441	82.154784
1080.615	81.778587
1080.789	82.730539
1080.963	83.356248
1081.137	82.518633
1081.312	81.714662
1081.486	81.301636
1081.660	80.791689
1081.834	80.763781
1082.008	81.028264
1082.182	81.263117
1082.356	81.755278
1082.530	81.986906
1082.704	81.056985
1082.878	80.865697
1083.052	81.898580
1083.226	82.339991
1083.400	82.339452
1083.573	82.199570
1083.747	82.631386
1083.921	82.133880
1084.095	81.094787
1084.269	80.134915
1084.443	80.152118
1084.616	80.794931
1084.790	80.431208
1084.964	80.180389
1085.138	80.218336
1085.311	80.188234
1085.485	80.286598
1085.659	80.244629
1085.832	80.873011
1086.006	81.184163
1086.179	81.390084
1086.353	81.613537
1086.527	81.265359
1086.700	81.479906
1086.874	80.940312
1087.047	80.374741
1087.221	80.378053
1087.394	80.725706
1087.568	80.811814
1087.741	80.717140
1087.914	80.902042
1088.088	81.310096
1088.261	80.639257
1088.435	79.455826
1088.608	79.119745
1088.781	79.531813
1088.954	79.768456
1089.128	79.924659
1089.301	79.599449
1089.474	79.442450
1089.647	79.075644
1089.821	78.677426
1089.994	78.512561
1090.167	78.956655
1090.340	80.251750
1090.513	80.004905
1090.686	79.207738
1090.859	78.827878
1091.032	78.484042
1091.206	78.221275
1091.379	77.747680
1091.552	77.388787
1091.725	77.788784
1091.898	78.269638
1092.071	77.391041
1092.244	76.387649
1092.416	76.145681
1092.589	76.499715
1092.762	76.994056
1092.935	77.619485
1093.108	77.723241
1093.281	78.069295
1093.453	77.830307
1093.626	77.551781
1093.799	76.511944
1093.972	76.785091
1094.145	77.653440
1094.317	78.278997
1094.490	78.421531
1094.663	77.235961
1094.835	76.335411
1095.008	76.318314
1095.181	76.279842
1095.353	76.594744
1095.526	76.641857
1095.698	76.364648
1095.871	76.407903
1096.043	75.249083
1096.216	74.538752
1096.388	74.413574
1096.561	75.025200
1096.733	74.680076
1096.906	74.649890
1097.078	74.380042
1097.250	74.288871
1097.423	74.333858
1097.595	75.267370
1097.768	75.528052
1097.940	76.079880
1098.112	76.315122
1098.284	76.460051
1098.457	76.694858
1098.629	77.522773
1098.801	77.447832
1098.973	76.941763
1099.146	76.672800
1099.318	75.842712
1099.490	74.881346
1099.662	74.004523
1099.834	73.525448
1100.006	73.284535
1100.178	73.208679
1100.350	72.712362
1100.522	72.161836
1100.694	71.617450
1100.866	71.133056
1101.038	71.641073
1101.210	71.958589
1101.382	71.919995
1101.554	71.938117
1101.726	73.009041
1101.898	73.383776
1102.070	73.223760
1102.241	73.194152
1102.413	72.936295
1102.585	73.248812
1102.757	74.025102
1102.929	73.022267
1103.100	72.540914
1103.272	72.257772
1103.444	72.520554
1103.616	71.722230
1103.787	70.956507
1103.959	69.916381
1104.130	69.497776
1104.302	69.826905
1104.474	69.622759
1104.645	68.811997
1104.817	69.105798
1104.988	69.625233
1105.160	70.303052
1105.331	70.307585
1105.503	70.149152
1105.674	70.515272
1105.846	70.902831
1106.017	70.930412
1106.189	70.658429
1106.360	70.337337
1106.531	71.028845
1106.703	71.446391
1106.874	71.755198
1107.045	71.524964
1107.217	71.618282
1107.388	71.717823
1107.559	71.547553
1107.730	71.960588
1107.902	72.573965
1108.073	72.745058
1108.244	73.340810
1108.415	72.989384
1108.586	72.322760
1108.757	71.400815
1108.929	70.867446
1109.100	70.411083
1109.271	70.298428
1109.442	70.063438
1109.613	69.497579
1109.784	69.108513
1109.955	69.111901
1110.126	69.031684
1110.297	68.541019
1110.468	68.319313
1110.639	68.649901
1110.809	69.273342
1110.980	69.662271
1111.151	69.857450
1111.322	70.201285
1111.493	70.170760
1111.664	69.351864
1111.834	68.869322
1112.005	68.612765
1112.176	68.957460
1112.347	69.392767
1112.517	69.222413
1112.688	68.622643
1112.859	68.303397
1113.029	67.974613
1113.200	67.910732
1113.371	68.007959
1113.541	68.090880
1113.712	67.551236
1113.882	67.506191
1114.053	67.575173
1114.223	67.675994
1114.394	67.068346
1114.564	66.363110
1114.735	66.317264
1114.905	66.206173
1115.076	65.494313
1115.246	65.090216
1115.416	64.534336
1115.587	64.643099
1115.757	64.106257
1115.927	63.368752
1116.098	62.499964
1116.268	62.362898
1116.438	62.939916
1116.609	62.766634
1116.779	62.666360
1116.949	62.826339
1117.119	62.710659
1117.289	62.719681
1117.459	62.806282
1117.630	62.825932
1117.800	62.948222
1117.970	63.088735
1118.140	63.609383
1118.310	63.370248
1118.480	62.921751
1118.650	62.794205
1118.820	62.569654
1118.990	62.196200
1119.160	62.365386
1119.330	62.374879
1119.500	62.097531
1119.670	62.097987
1119.840	62.149476
1120.010	61.650654
1120.179	61.468400
1120.349	61.712360
1120.519	61.408258
1120.689	61.059763
1120.859	60.885978
1121.028	61.305822
1121.198	61.200844
1121.368	61.292458
1121.538	61.011040
1121.707	60.877796
1121.877	61.122503
1122.047	61.439111
1122.216	61.126251
1122.386	60.833423
1122.555	60.721125
1122.725	60.918424
1122.894	60.207549
1123.064	59.876980
1123.233	59.724603
1123.403	59.926002
1123.573	59.730217
1123.742	59.054218
1123.911	58.704875
1124.081	58.415178
1124.250	58.364507
1124.419	58.526563
1124.589	58.874636
1124.758	59.289517
1124.927	58.967891
1125.097	58.656034
1125.266	57.903581
1125.435	57.543158
1125.605	57.670613
1125.774	57.481443
1125.943	57.621930
1126.112	57.599943
1126.281	57.690610
1126.450	57.384759
1126.620	57.162192
1126.789	57.677098
1126.958	57.873017
1127.127	58.425820
1127.296	58.995689
1127.465	59.387382
1127.634	60.207784
1127.803	60.731426
1127.972	60.954248
1128.141	60.642971
1128.310	60.224416
1128.479	59.892725
1128.648	59.463813
1128.817	59.255091
1128.985	58.883055
1129.154	58.089654
1129.323	57.834020
1129.492	57.073736
1129.661	56.311676
1129.829	56.157354
1129.998	56.047239
1130.167	56.205803
1130.336	56.216191
1130.504	56.404020
1130.673	56.760996
1130.842	56.611913
1131.010	56.640068
1131.179	56.228661
1131.347	55.807251
1131.516	55.581140
1131.685	55.229109
1131.853	54.776597
1132.022	54.465009
1132.190	54.399707
1132.359	53.986443
1132.527	53.592664
1132.696	53.382575
1132.864	53.207297
1133.032	53.016281
1133.201	52.672190
1133.369	52.606711
1133.537	52.854154
1133.706	53.553575
1133.874	53.765220
1134.042	53.351059
1134.211	53.335570
1134.379	53.232340
1134.547	53.331863
1134.715	53.486343
1134.884	53.776105
1135.052	53.987427
1135.220	53.969465
1135.388	53.759514
1135.556	53.477419
1135.724	53.365251
1135.892	53.487211
1136.060	53.261534
1136.228	52.877674
1136.396	52.898357
1136.564	52.298998
1136.732	51.880283
1136.900	51.985299
1137.068	52.406228
1137.236	52.186275
1137.404	51.594641
1137.572	50.790721
1137.740	50.892309
1137.908	50.758460
1138.076	50.542780
1138.243	50.517511
1138.411	50.846671
1138.579	50.747713
1138.747	50.207809
1138.914	49.353524
1139.082	49.076473
1139.250	49.530852
1139.417	50.200470
1139.585	49.635190
1139.753	50.381715
1139.920	50.668179
1140.088	49.800161
1140.256	49.445934
1140.423	49.592800
1140.591	49.933880
1140.758	50.500563
1140.926	50.499480
1141.093	49.851586
1141.261	49.763326
1141.428	50.073190
1141.596	49.070440
1141.763	48.750038
1141.930	49.177628
1142.098	49.397640
1142.265	49.033212
1142.432	48.679198
1142.600	48.288650
1142.767	48.055348
1142.934	48.157238
1143.102	47.718887
1143.269	47.553508
1143.436	47.730079
1143.603	47.474043
1143.771	46.996058
1143.938	46.813288
1144.105	46.769712
1144.272	46.885742
1144.439	46.592375
1144.606	46.361885
1144.773	46.720367
1144.940	46.740753
1145.107	46.644426
1145.274	46.484170
1145.441	46.413713
1145.608	46.885496
1145.775	47.150919
1145.942	46.988984
1146.109	46.908615
1146.276	46.825511
1146.443	47.023342
1146.610	46.153873
1146.776	45.934281
1146.943	45.699584
1147.110	45.348795
1147.277	45.398498
1147.444	45.046365
1147.610	44.382724
1147.777	44.096900
1147.944	44.064616
1148.110	44.245086
1148.277	43.921362
1148.444	44.089899
1148.610	44.421220
1148.777	44.388639
1148.944	44.552460
1149.110	44.479894
1149.277	44.432772
1149.443	44.630969
1149.610	45.006536
1149.776	44.772819
1149.943	44.923101
1150.109	45.179541
1150.276	45.128804
1150.442	44.616965
1150.608	44.434683
1150.775	44.304695
1150.941	43.961323
1151.107	44.257562
1151.274	44.388372
1151.440	44.040410
1151.606	43.275234
1151.773	42.775740
1151.939	42.497431
1152.105	42.590416
1152.271	42.817291
1152.438	42.790605
1152.604	42.530333
1152.770	42.835723
1152.936	42.733509
1153.102	42.504704
1153.268	42.267578
1153.434	42.979009
1153.600	42.947549
1153.766	43.101654
1153.932	42.979709
1154.098	42.279499
1154.264	42.186185
1154.430	42.596094
1154.596	42.514739
1154.762	42.158992
1154.928	41.847712
1155.094	42.068701
1155.260	41.413430
1155.426	41.241092
1155.591	41.030700
1155.757	41.154666
1155.923	41.319589
1156.089	41.138393
1156.255	40.935588
1156.420	40.512018
1156.586	40.516453
1156.752	40.922596
1156.917	40.947792
1157.083	41.357052
1157.249	41.560666
1157.414	41.303058
1157.580	40.651515
1157.745	40.351460
1157.911	40.217456
1158.076	39.790065
1158.242	39.860231
1158.407	39.947145
1158.573	39.451921
1158.738	39.109980
1158.904	38.403408
1159.069	37.601308
1159.235	37.726660
1159.400	38.309577
1159.565	38.803102
1159.731	39.127799
1159.896	39.320771
1160.061	39.880637
1160.227	39.848031
1160.392	39.882114
1160.557	39.727142
1160.722	39.919225
1160.888	40.290823
1161.053	40.060962
1161.218	39.701483
1161.383	39.534899
1161.548	39.303208
1161.713	38.963222
1161.878	38.070566
1162.043	37.683723
1162.208	37.103329
1162.374	37.147939
1162.539	37.350385
1162.704	37.292424
1162.869	37.316054
1163.033	37.451521
1163.198	37.293271
1163.363	37.416708
1163.528	37.758415
1163.693	37.816736
1163.858	38.198723
1164.023	38.836964
1164.188	38.769337
1164.353	38.249282
1164.517	37.989535
1164.682	38.004465
1164.847	37.914876
1165.011	38.127150
1165.176	38.252912
1165.341	37.999549
1165.506	37.755460
1165.670	36.571820
1165.835	36.144259
1166.000	36.386738
1166.164	36.655164
1166.329	36.487976
1166.493	36.425192
1166.658	36.179365
1166.822	36.248328
1166.987	36.105049
1167.151	36.148848
1167.316	36.386929
1167.480	36.981401
1167.645	36.956038
1167.809	36.459337
1167.973	36.504268
1168.138	36.723608
1168.302	36.801099
1168.466	36.779421
1168.631	36.349169
1168.795	35.870767
1168.959	35.949013
1169.124	36.177350
1169.288	36.122836
1169.452	35.884384
1169.616	35.846220
1169.780	35.851319
1169.944	36.313651
1170.109	36.316520
1170.273	35.915898
1170.437	35.868004
1170.601	36.202460
1170.765	35.628413
1170.929	35.026958
1171.093	35.316262
1171.257	35.598358
1171.421	35.770929
1171.585	35.651312
1171.749	35.086054
1171.913	34.784053
1172.077	35.222165
1172.240	35.321953
1172.404	35.049671
1172.568	34.584647
1172.732	34.852603
1172.896	34.483125
1173.060	34.169256
1173.223	34.142509
1173.387	34.095556
1173.551	34.082278
1173.715	34.159858
1173.878	34.006498
1174.042	33.637267
1174.206	33.862096
1174.369	34.883884
1174.533	34.621690
1174.696	34.305655
1174.860	34.610755
1175.023	34.632209
1175.187	34.285914
1175.351	33.630996
1175.514	33.379072
1175.677	33.247372
1175.841	33.238149
1176.004	32.453275
1176.168	31.933826
1176.331	32.167697
1176.495	32.592397
1176.658	32.483292
1176.821	32.479351
1176.985	33.093572
1177.148	33.504766
1177.311	33.836821
1177.474	34.027907
1177.638	34.394052
1177.801	34.845329
1177.964	35.319631
1178.127	35.078506
1178.291	34.571248
1178.454	34.824362
1178.617	35.069117
1178.780	34.611219
1178.943	34.925500
1179.106	34.802925
1179.269	34.764957
1179.432	34.573380
1179.595	34.838483
1179.758	34.411482
1179.921	34.563572
1180.084	34.977432
1180.247	34.738632
1180.410	34.244268
1180.573	34.204035
1180.736	33.779106
1180.899	33.641658
1181.061	33.499219
1181.224	33.356676
1181.387	33.446134
1181.550	33.613752
1181.713	33.592967
1181.875	33.323512
1182.038	33.395188
1182.201	34.005754
1182.363	34.358829
1182.526	34.349853
1182.689	34.416161
1182.851	34.203725
1183.014	34.591069
1183.177	34.388587
1183.339	34.352248
1183.502	34.588797
1183.664	34.967131
1183.827	35.261104
1183.989	34.840648
1184.152	34.728823
1184.314	34.851745
1184.477	34.559686
1184.639	34.738831
1184.801	34.583605
1184.964	34.614295
1185.126	34.359883
1185.288	34.140064
1185.451	33.918359
1185.613	33.612862
1185.775	33.690980
1185.938	33.678850
1186.100	33.607123
1186.262	33.633143
1186.424	33.634208
1186.586	33.372589
1186.749	33.183827
1186.911	33.033094
1187.073	32.808845
1187.235	32.685809
1187.397	32.322300
1187.559	32.358609
1187.721	32.330749
1187.883	32.917171
1188.045	32.954253
1188.207	32.791642
1188.369	32.934657
1188.531	32.766200
1188.693	32.888101
1188.855	33.130979
1189.017	33.330593
1189.179	33.546395
1189.341	33.243010
1189.502	32.831821
1189.664	32.445077
1189.826	32.489084
1189.988	32.917653
1190.150	33.233240
1190.311	33.759009
1190.473	34.306679
1190.635	34.180924
1190.796	34.075722
1190.958	34.291524
1191.120	34.195179
1191.281	34.329359
1191.443	34.775507
1191.604	35.286293
1191.766	35.093893
1191.928	34.919201
1192.089	34.611188
1192.251	34.373531
1192.412	34.391197
1192.574	34.412710
1192.735	34.418271
1192.896	34.776506
1193.058	35.206974
1193.219	34.387380
1193.381	33.983709
1193.542	34.227547
1193.703	34.499685
1193.865	35.183247
1194.026	35.183063
1194.187	35.193215
1194.349	35.469959
1194.510	35.625699
1194.671	35.726034
1194.832	35.585820
1194.993	36.037420
1195.155	36.149886
1195.316	36.047860
1195.477	35.986973
1195.638	35.418804
1195.799	35.322447
1195.960	35.367529
1196.121	35.309167
1196.282	35.248366
1196.443	34.692823
1196.604	34.290526
1196.765	34.375106
1196.926	34.428783
1197.087	34.785549
1197.248	35.321206
1197.409	35.752101
1197.570	35.969900
1197.730	36.247288
1197.891	36.051958
1198.052	36.093774
1198.213	37.036055
1198.374	37.505195
1198.534	37.400059
1198.695	37.396113
1198.856	36.878529
1199.016	36.875289
1199.177	36.928517
1199.338	37.314943
1199.498	37.288452
1199.659	37.341291
1199.820	37.494219
1199.980	36.761487
1200.141	36.676287
1200.301	36.659050
1200.462	36.577361
1200.622	36.826106
1200.783	36.396885
1200.943	36.173017
1201.104	35.980259
1201.264	35.966599
1201.424	35.863014
1201.585	35.925852
1201.745	36.555164
1201.906	36.624974
1202.066	36.484083
1202.226	36.796435
1202.386	37.022237
1202.547	37.256934
1202.707	37.256243
1202.867	37.303193
1203.027	37.471123
1203.188	37.610870
1203.348	37.541060
1203.508	37.639494
1203.668	37.867858
1203.828	38.358004
1203.988	38.479224
1204.148	38.007004
1204.308	37.501376
1204.468	37.797329
1204.628	37.466752
1204.788	37.262474
1204.948	37.585735
1205.108	37.443578
1205.268	37.301001
1205.428	37.196616
1205.588	36.693295
1205.748	36.382528
1205.908	37.019154
1206.068	37.295020
1206.228	36.956944
1206.387	37.145515
1206.547	37.554063
1206.707	37.576031
1206.867	37.868775
1207.026	38.070131
1207.186	38.255435
1207.346	38.842148
1207.505	39.154257
1207.665	39.049472
1207.825	39.265433
1207.984	39.583500
1208.144	39.624258
1208.303	39.363839
1208.463	39.308259
1208.622	39.312556
1208.782	38.950024
1208.941	38.946483
1209.101	39.029977
1209.260	39.140135
1209.420	39.146108
1209.579	39.122552
1209.739	39.057201
1209.898	39.283687
1210.057	39.440750
1210.217	39.295717
1210.376	39.297628
1210.535	39.293825
1210.694	39.642793
1210.854	40.062359
1211.013	40.617647
1211.172	41.033055
1211.331	41.018653
1211.490	40.623758
1211.650	40.542900
1211.809	40.749963
1211.968	41.174831
1212.127	41.306962
1212.286	41.192171
1212.445	41.154159
1212.604	40.978899
1212.763	40.489526
1212.922	40.699655
1213.081	41.186882
1213.240	41.686576
1213.399	42.062373
1213.558	42.151970
1213.717	42.148047
1213.876	42.257602
1214.035	43.112145
1214.194	43.041075
1214.352	43.167363
1214.511	43.247124
1214.670	42.811961
1214.829	42.599609
1214.988	43.125607
1215.146	42.926629
1215.305	42.609313
1215.464	42.244783
1215.622	42.186265
1215.781	42.056541
1215.940	42.193749
1216.098	41.458014
1216.257	41.355721
1216.415	41.441267
1216.574	41.530407
1216.732	41.453764
1216.891	41.864400
1217.049	42.260616
1217.208	43.352593
1217.366	43.730353
1217.525	43.883503
1217.683	44.093738
1217.842	44.461751
1218.000	44.186557
1218.158	44.097988
1218.317	44.179196
1218.475	44.226464
1218.633	44.012118
1218.792	43.726063
1218.950	43.150823
1219.108	42.663559
1219.266	42.843016
1219.425	43.228748
1219.583	43.349658
1219.741	43.499929
1219.899	43.636062
1220.057	43.605934
1220.215	43.427337
1220.373	43.709404
1220.531	44.359620
1220.689	44.521449
1220.847	44.488956
1221.005	44.182792
1221.163	43.813254
1221.322	43.880498
1221.479	44.282805
1221.637	44.089332
1221.795	43.461662
1221.953	43.366927
1222.111	42.952333
1222.269	42.343238
1222.427	42.491737
1222.584	42.642031
1222.742	42.756310
1222.900	43.094828
1223.058	43.316432
1223.216	43.623663
1223.373	44.263174
1223.531	45.334193
1223.689	45.654491
1223.846	45.756919
1224.004	46.011146
1224.162	45.686252
1224.319	45.907014
1224.477	45.750191
1224.634	45.885561
1224.792	45.818092
1224.949	45.406082
1225.107	45.182160
1225.264	44.930808
1225.422	45.199920
1225.579	45.481729
1225.737	45.443880
1225.894	45.712798
1226.052	45.558935
1226.209	46.226232
1226.366	46.300185
1226.523	46.613498
1226.681	47.025539
1226.838	47.151123
1226.995	47.256835
1227.153	46.701622
1227.310	46.589532
1227.467	46.987004
1227.624	47.037472
1227.781	47.782552
1227.938	47.042615
1228.096	46.613397
1228.253	46.988493
1228.410	47.600811
1228.567	48.127109
1228.724	48.150231
1228.881	48.698985
1229.038	48.702572
1229.195	48.617733
1229.352	48.630342
1229.509	48.105693
1229.666	48.604209
1229.823	48.622137
1229.980	48.489876
1230.136	48.141591
1230.293	47.650374
1230.450	47.519872
1230.607	47.321634
1230.764	47.557241
1230.921	47.863699
1231.077	48.379152
1231.234	48.405826
1231.391	48.751383
1231.547	49.350943
1231.704	49.329209
1231.861	49.264353
1232.018	49.455513
1232.174	49.658287
1232.331	49.295689
1232.487	49.339838
1232.644	49.297620
1232.800	49.285769
1232.957	49.393994
1233.113	49.232250
1233.270	48.843380
1233.426	49.125368
1233.583	49.416494
1233.739	49.707960
1233.896	50.000871
1234.052	50.254528
1234.208	50.477459
1234.365	50.677679
1234.521	50.273093
1234.677	50.731251
1234.834	50.958815
1234.990	51.441930
1235.146	51.385232
1235.302	50.936349
1235.459	50.404818
1235.615	49.956744
1235.771	49.949298
1235.927	49.388509
1236.083	49.388996
1236.239	50.170842
1236.396	50.406390
1236.552	49.956999
1236.708	49.728179
1236.864	49.719634
1237.020	50.104647
1237.176	50.757129
1237.332	51.087321
1237.488	51.781689
1237.644	52.260797
1237.799	52.308454
1237.955	51.780880
1238.111	51.622001
1238.267	52.355389
1238.423	51.935379
1238.579	51.431162
1238.734	51.412148
1238.890	51.168671
1239.046	51.161063
1239.202	50.574435
1239.357	50.025711
1239.513	49.604193
1239.669	49.340468
1239.824	49.124310
1239.980	48.651148
1240.136	48.462475
1240.291	48.814680
1240.447	48.917680
1240.603	49.279321
1240.758	49.388649
1240.914	49.653190
1241.069	50.376596
1241.225	51.037055
1241.380	51.039324
1241.535	51.033437
1241.691	50.868988
1241.846	51.351221
1242.002	51.397864
1242.157	50.744272
1242.313	50.329842
1242.468	50.765265
1242.623	51.185323
1242.778	51.234069
1242.934	51.142083
1243.089	51.478830
1243.244	51.498582
1243.399	52.034996
1243.554	52.438356
1243.710	53.455845
1243.865	54.693328
1244.020	54.813560
1244.175	55.220089
1244.330	55.103473
1244.485	55.169948
1244.640	55.191237
1244.795	55.498918
1244.950	56.500079
1245.105	56.762122
1245.260	56.485583
1245.415	55.471614
1245.570	55.072122
1245.725	55.323037
1245.880	53.908273
1246.035	53.817346
1246.190	54.063134
1246.345	54.400125
1246.499	55.002478
1246.654	54.413131
1246.809	54.487949
1246.964	54.754244
1247.118	54.741216
1247.273	54.411335
1247.428	54.247932
1247.583	54.983564
1247.737	54.909202
1247.892	54.955650
1248.047	55.338626
1248.201	54.844542
1248.356	55.423666
1248.510	54.799602
1248.665	54.196148
1248.819	55.145171
1248.974	55.501709
1249.128	56.523080
1249.283	57.163360
1249.437	57.836016
1249.592	58.160650
1249.746	57.894008
1249.900	57.624632
1250.055	56.885863
1250.209	57.570884
1250.363	58.426776
1250.518	57.933951
1250.672	58.094017
1250.826	57.525084
1250.981	57.248022
1251.135	57.814524
1251.289	57.804319
1251.443	57.351857
1251.597	57.600460
1251.751	58.408638
1251.906	57.909812
1252.060	57.873817
1252.214	57.903485
1252.368	57.674765
1252.522	57.429554
1252.676	57.085150
1252.830	56.497414
1252.984	56.311175
1253.138	56.672315
1253.292	57.046938
1253.446	56.372520
1253.600	56.375260
1253.754	56.301731
1253.907	55.614756
1254.061	55.913557
1254.215	56.704929
1254.369	57.023542
1254.523	57.264089
1254.677	57.700311
1254.830	58.041969
1254.984	58.094522
1255.138	57.213268
1255.292	57.477561
1255.445	58.058671
1255.599	59.235014
1255.752	59.302847
1255.906	58.939671
1256.060	59.704899
1256.213	59.583273
1256.367	59.384843
1256.520	59.418033
1256.674	59.913853
1256.827	61.367544
1256.981	61.493123
1257.134	61.521575
1257.288	61.201700
1257.441	61.185930
1257.594	61.304756
1257.748	60.736352
1257.901	61.133173
1258.055	60.926678
1258.208	60.744147
1258.361	60.878515
1258.515	61.082653
1258.668	61.748535
1258.821	61.908450
1258.974	61.913890
1259.127	62.423675
1259.281	62.871349
1259.434	63.491711
1259.587	63.543617
1259.740	63.937157
1259.893	64.884721
1260.046	64.840454
1260.199	64.834222
1260.352	63.902039
1260.505	63.096610
1260.658	62.436371
1260.811	62.496481
1260.964	62.095562
1261.117	62.034151
1261.270	61.839014
1261.423	61.545816
1261.576	59.482308
1261.729	58.850704
1261.882	59.075276
1262.035	59.917829
1262.188	61.028725
1262.340	61.741610
1262.493	61.587974
1262.646	61.996093
1262.798	61.893988
1262.951	62.277772
1263.104	63.143890
1263.257	64.109639
1263.409	63.918811
1263.562	63.117681
1263.714	63.022186
1263.867	62.272130
1264.020	62.795199
1264.172	62.448226
1264.325	62.253416
1264.477	61.600396
1264.630	60.751298
1264.782	59.955391
1264.935	60.828651
1265.087	60.733670
1265.240	60.679330
1265.392	60.918501
1265.544	61.799132
1265.697	61.434015
1265.849	61.454503
1266.001	60.984343
1266.154	61.175586
1266.306	61.639785
1266.458	61.891896
1266.610	62.161181
1266.762	62.753917
1266.915	63.279692
1267.067	63.673242
1267.219	63.545118
1267.371	63.824103
1267.523	64.115791
1267.675	63.966513
1267.828	64.126889
1267.979	63.696659
1268.132	63.645454
1268.284	62.760690
1268.436	62.548803
1268.588	62.973643
1268.740	62.807400
1268.891	61.630178
1269.043	60.726544
1269.195	60.777940
1269.347	61.623398
1269.499	62.088310
1269.651	63.706587
1269.803	64.323034
1269.955	65.362446
1270.106	66.059259
1270.258	64.831430
1270.410	64.519766
1270.562	65.152224
1270.713	66.037425
1270.865	67.476541
1271.017	67.322087
1271.168	64.613987
1271.320	63.475211
1271.471	63.249396
1271.623	63.068677
1271.775	62.785839
1271.926	63.473645
1272.078	63.648978
1272.229	63.871891
1272.381	63.670985
1272.532	62.700642
1272.684	63.026976
1272.835	66.045607
1272.986	66.178890
1273.138	66.725506
1273.289	66.102603
1273.440	66.443749
1273.592	66.631577
1273.743	67.062405
1273.894	66.868232
1274.046	67.326246
1274.197	67.285647
1274.348	66.940561
1274.500	66.429205
1274.651	66.709490
1274.802	66.020357
>>>>>>>>>> END of Data <<<<<<<<<<
