Date	2025年07月03日木曜日 09時56分28秒
Spectrometers	SR401765
ダーク	使用
リファレンス	使用
積分時間[msec]	300
平均回数	1
ｽﾑｰｼﾞﾝｸﾞ	5
Electrical Dark	USE
ピクセル数	3648
計測モード	反射率
保存開始波長[nm]	598.495
保存終了波長[nm]	1274.802
保存ﾋﾟｯﾁ波長[nm]	全波長

>>>>>>>>>> Data Start <<<<<<<<<<<<
598.495	27485.525188
598.713	27485.525188
598.931	27485.525188
599.148	27485.525188
599.366	0.000000
599.584	0.000000
599.802	-993.481989
600.020	3.995923
600.238	-37.168867
600.455	222.405770
600.673	178.493320
600.891	79.591983
601.109	76.470705
601.326	74.843480
601.544	73.113300
601.762	72.808263
601.979	73.159949
602.197	73.403783
602.415	73.717425
602.632	73.721805
602.850	73.694192
603.067	74.054783
603.285	74.276057
603.502	74.090308
603.720	73.872692
603.938	74.063976
604.155	74.080771
604.372	73.870776
604.590	73.766785
604.807	73.546282
605.025	73.483279
605.242	73.515338
605.460	73.118513
605.677	72.769672
605.894	72.960028
606.112	73.556587
606.329	74.008245
606.546	74.602877
606.764	75.084709
606.981	75.407974
607.198	75.753789
607.415	76.075384
607.633	76.296652
607.850	76.833377
608.067	77.446593
608.284	77.697610
608.501	77.515536
608.718	77.588385
608.935	77.560964
609.153	77.382277
609.370	77.320982
609.587	77.184613
609.804	77.059512
610.021	77.006992
610.238	76.882258
610.455	76.497764
610.672	76.296924
610.889	76.436451
611.106	76.484852
611.323	76.396313
611.540	76.528255
611.756	76.655662
611.973	76.863570
612.190	77.138386
612.407	77.417205
612.624	77.444805
612.841	77.703902
613.057	78.008100
613.274	78.070518
613.491	78.192109
613.708	78.603961
613.925	78.827914
614.141	78.836227
614.358	78.954512
614.575	79.077879
614.791	78.943032
615.008	78.946185
615.225	78.830897
615.441	78.583008
615.658	78.574370
615.874	78.543686
616.091	78.537652
616.307	78.722760
616.524	78.880445
616.740	78.802767
616.957	78.781239
617.173	78.765982
617.390	78.932245
617.606	79.266189
617.823	79.665535
618.039	79.915082
618.256	80.090655
618.472	80.149092
618.688	80.106213
618.905	80.143181
619.121	80.270866
619.337	80.444933
619.554	80.740167
619.770	80.656836
619.986	80.453696
620.202	80.319698
620.419	80.297610
620.635	80.233736
620.851	80.031522
621.067	79.924265
621.283	80.067838
621.499	80.116704
621.716	79.662659
621.932	79.386513
622.148	79.495915
622.364	79.547948
622.580	79.428953
622.796	79.203134
623.012	79.097361
623.228	79.200286
623.444	79.379005
623.660	79.322419
623.876	79.373731
624.092	79.717228
624.308	79.842530
624.524	79.790567
624.740	79.741015
624.955	79.797895
625.171	79.819365
625.387	79.714832
625.603	79.765742
625.819	79.797012
626.034	79.708408
626.250	79.573361
626.466	79.522278
626.682	79.543872
626.897	79.660047
627.113	79.895311
627.329	80.047874
627.544	80.031838
627.760	79.954755
627.976	79.707171
628.191	79.438532
628.407	79.559230
628.623	80.041825
628.838	80.589115
629.054	80.973113
629.269	81.220068
629.485	81.506215
629.700	81.922657
629.916	82.458482
630.131	82.715174
630.347	82.840310
630.562	83.035638
630.777	83.003501
630.993	82.627020
631.208	82.097314
631.424	81.803196
631.639	81.717070
631.854	81.535365
632.070	81.321902
632.285	81.197680
632.500	81.231452
632.715	81.221019
632.931	81.117503
633.146	81.041978
633.361	80.964824
633.576	81.105413
633.791	81.267036
634.007	81.395303
634.222	81.595642
634.437	81.730006
634.652	82.013840
634.867	82.484432
635.082	83.158231
635.297	83.832922
635.512	84.391315
635.727	84.926690
635.942	85.261469
636.157	85.629218
636.372	85.712180
636.587	85.365859
636.802	85.047726
637.017	84.626572
637.232	84.160266
637.447	83.928964
637.662	83.905582
637.876	83.772141
638.091	83.360276
638.306	82.798571
638.521	82.302456
638.736	82.207348
638.951	82.487294
639.165	82.619549
639.380	82.580654
639.595	82.590356
639.809	82.406002
640.024	82.172673
640.239	82.343321
640.453	82.614532
640.668	82.956772
640.883	83.015620
641.097	82.788557
641.312	82.463325
641.526	82.317596
641.741	82.342827
641.955	82.379713
642.170	82.451640
642.384	82.531277
642.599	82.421115
642.813	82.604108
643.028	83.029153
643.242	83.554222
643.457	83.990382
643.671	84.391755
643.885	84.494027
644.100	84.412787
644.314	84.367771
644.528	84.328978
644.743	84.146378
644.957	84.131819
645.171	84.147645
645.386	83.784526
645.600	83.444361
645.814	83.328384
646.028	83.447629
646.242	83.883558
646.457	84.040292
646.671	83.920693
646.885	83.856666
647.099	84.092932
647.313	84.173503
647.527	83.935211
647.741	84.096260
647.955	84.504607
648.169	85.036497
648.383	85.423351
648.597	85.595485
648.811	85.983229
649.025	86.457300
649.239	86.719655
649.453	86.656349
649.667	86.743831
649.881	87.372559
650.095	87.652017
650.309	87.413814
650.523	86.937769
650.737	86.477348
650.950	86.275984
651.164	86.377363
651.378	86.757173
651.592	86.880914
651.805	86.867862
652.019	87.036713
652.233	86.951506
652.447	86.903254
652.660	87.029554
652.874	87.302121
653.088	87.545255
653.301	87.592983
653.515	87.380569
653.728	87.067395
653.942	87.027729
654.156	86.951626
654.369	86.444414
654.583	85.920536
654.796	85.775316
655.010	85.720596
655.223	85.635473
655.437	85.563280
655.650	85.596574
655.863	85.650408
656.077	85.511047
656.290	85.547775
656.504	85.799142
656.717	85.979922
656.930	85.874221
657.144	85.324173
657.357	84.920732
657.570	84.703931
657.783	84.622687
657.997	84.438954
658.210	84.273641
658.423	84.229473
658.636	84.115017
658.849	83.949423
659.063	83.938196
659.276	84.311444
659.489	84.896560
659.702	85.397367
659.915	85.365172
660.128	84.840804
660.341	84.584373
660.554	84.609688
660.767	84.734752
660.980	84.968425
661.193	85.136468
661.406	85.195493
661.619	85.144585
661.832	85.038655
662.045	84.779083
662.258	84.848688
662.471	85.229641
662.684	85.352405
662.897	85.318695
663.110	85.019336
663.322	84.407389
663.535	83.871699
663.748	83.563205
663.961	83.589071
664.174	83.597780
664.386	83.559325
664.599	83.708114
664.812	83.862930
665.024	83.965895
665.237	84.027053
665.450	84.313610
665.662	84.607939
665.875	84.790975
666.088	84.933668
666.300	84.686124
666.513	84.529929
666.725	84.808345
666.938	84.901832
667.150	84.933208
667.363	85.056310
667.575	85.046435
667.788	84.944752
668.000	85.119835
668.213	85.546358
668.425	85.938906
668.638	86.152293
668.850	86.356346
669.062	86.336643
669.275	86.405607
669.487	86.708192
669.699	87.036827
669.912	87.392749
670.124	87.553135
670.336	87.407550
670.548	87.350013
670.761	87.264097
670.973	87.420882
671.185	87.624424
671.397	87.596618
671.609	87.457917
671.822	87.084388
672.034	86.635246
672.246	86.376104
672.458	86.493129
672.670	86.963878
672.882	86.932659
673.094	86.496122
673.306	86.137073
673.518	85.888670
673.730	85.729506
673.942	85.534996
674.154	85.366337
674.366	85.413709
674.578	85.437311
674.790	85.193177
675.002	84.872243
675.214	84.891706
675.425	84.970301
675.637	84.958970
675.849	84.870702
676.061	84.627848
676.273	84.348904
676.484	84.377173
676.696	84.538679
676.908	84.760506
677.120	84.949182
677.331	84.822808
677.543	84.445700
677.755	84.135925
677.966	84.062734
678.178	83.984238
678.389	84.178433
678.601	84.424206
678.813	84.281597
679.024	83.793175
679.236	83.273289
679.447	82.942946
679.659	82.799812
679.870	82.571149
680.082	82.480285
680.293	82.065566
680.505	81.722824
680.716	81.625418
680.927	81.567991
681.139	81.559884
681.350	81.600992
681.562	81.611199
681.773	81.739283
681.984	81.868632
682.196	82.336427
682.407	82.918052
682.618	83.324532
682.829	83.491249
683.041	83.487777
683.252	83.617305
683.463	83.861908
683.674	84.046497
683.885	84.152821
684.097	83.829414
684.308	83.578849
684.519	83.173143
684.730	82.515558
684.941	82.165699
685.152	82.198378
685.363	82.305809
685.574	82.079284
685.785	81.522591
685.996	81.103427
686.207	80.683332
686.418	80.536530
686.629	80.363495
686.840	80.369262
687.051	80.650698
687.262	80.923034
687.473	80.844717
687.684	80.505904
687.894	80.437099
688.105	80.965861
688.316	81.339379
688.527	81.605233
688.738	81.714755
688.948	81.626871
689.159	81.391412
689.370	80.984777
689.580	80.670165
689.791	80.646051
690.002	80.775788
690.212	80.989290
690.423	80.862938
690.634	80.828093
690.844	80.999768
691.055	81.476375
691.266	81.984713
691.476	82.280047
691.687	82.750738
691.897	83.098030
692.108	83.109198
692.318	83.079495
692.529	82.960177
692.739	82.914233
692.949	82.812020
693.160	82.590616
693.370	82.340255
693.581	82.350480
693.791	82.666902
694.001	82.760381
694.212	82.745116
694.422	82.722206
694.632	82.322590
694.843	81.620715
695.053	81.078246
695.263	80.766747
695.473	80.445550
695.683	79.964740
695.894	79.379973
696.104	78.808071
696.314	78.363732
696.524	78.050374
696.734	77.963973
696.944	78.200643
697.154	78.561906
697.365	78.759772
697.575	78.613186
697.785	78.434094
697.995	78.110416
698.205	77.784306
698.415	77.563601
698.625	77.366888
698.834	77.144278
699.044	76.799936
699.254	76.527615
699.464	76.269286
699.674	75.817902
699.884	75.551217
700.094	75.382014
700.304	75.399028
700.513	75.406880
700.723	75.280668
700.933	75.217095
701.143	75.280361
701.353	75.200753
701.562	74.972388
701.772	74.898507
701.982	75.175170
702.191	75.609901
702.401	76.059819
702.611	76.260004
702.820	76.228256
703.030	76.255179
703.239	76.415887
703.449	76.456645
703.659	76.560232
703.868	76.651815
704.078	76.469974
704.287	76.001562
704.497	75.320398
704.706	74.638719
704.916	74.206154
705.125	73.957852
705.334	73.539273
705.544	72.957298
705.753	72.501774
705.962	72.228111
706.172	71.946846
706.381	71.768643
706.590	71.793736
706.800	71.946173
707.009	72.270320
707.218	72.689245
707.428	72.951723
707.637	73.089554
707.846	73.240081
708.055	73.493638
708.264	73.724598
708.474	74.020318
708.683	74.197032
708.892	74.066797
709.101	73.893754
709.310	73.530374
709.519	72.830361
709.728	72.249011
709.937	71.901141
710.146	71.543566
710.355	70.954103
710.564	70.207516
710.773	69.554790
710.982	69.286767
711.191	69.219494
711.400	69.222990
711.609	69.215213
711.818	69.255519
712.027	69.219590
712.235	69.237199
712.444	69.188742
712.653	68.901450
712.862	68.522564
713.071	68.190109
713.279	67.731019
713.488	67.331675
713.697	66.910353
713.906	66.512402
714.114	66.217585
714.323	65.950188
714.532	65.619498
714.740	65.328633
714.949	65.288547
715.157	65.549131
715.366	65.659408
715.575	65.614623
715.783	65.432184
715.992	65.014992
716.200	64.445611
716.409	63.877730
716.617	63.392306
716.826	62.872946
717.034	62.432714
717.242	62.110729
717.451	61.555575
717.659	60.951242
717.868	60.593000
718.076	60.501999
718.284	60.544100
718.493	60.657850
718.701	60.836510
718.909	60.979522
719.118	61.030136
719.326	61.007517
719.534	60.915251
719.742	61.027406
719.951	61.278650
720.159	61.184999
720.367	60.824106
720.575	60.579234
720.783	60.557102
720.991	60.492993
721.199	60.373015
721.408	60.165189
721.616	59.759616
721.824	59.415974
722.032	59.047682
722.240	58.512548
722.448	58.161299
722.656	57.943483
722.864	57.571778
723.072	56.910986
723.280	56.208637
723.487	55.784714
723.695	55.583741
723.903	55.638442
724.111	55.624410
724.319	55.493587
724.527	55.452775
724.735	55.594551
724.942	55.677486
725.150	55.633365
725.358	55.546463
725.566	55.429321
725.773	55.121863
725.981	54.715008
726.189	54.276151
726.396	53.796256
726.604	53.271591
726.812	52.739800
727.019	52.027565
727.227	51.183125
727.435	50.565590
727.642	50.214281
727.850	49.866495
728.057	49.335817
728.265	48.737460
728.472	48.130767
728.680	47.526233
728.887	47.114358
729.095	46.889452
729.302	46.656821
729.509	46.441194
729.717	46.256721
729.924	45.964091
730.132	45.777657
730.339	45.666762
730.546	45.528664
730.753	45.465904
730.961	45.499082
731.168	45.295130
731.375	44.830613
731.583	44.382827
731.790	44.038769
731.997	43.777496
732.204	43.455963
732.411	43.151024
732.618	43.032224
732.826	43.049455
733.033	42.938042
733.240	42.608046
733.447	42.262018
733.654	42.020280
733.861	41.750777
734.068	41.515412
734.275	41.257350
734.482	41.049472
734.689	40.690041
734.896	40.118364
735.103	39.623067
735.310	39.232735
735.517	38.941848
735.724	38.749401
735.931	38.572441
736.137	38.446433
736.344	38.305206
736.551	37.990131
736.758	37.614359
736.965	37.263583
737.171	36.946166
737.378	36.546245
737.585	36.216841
737.792	35.896857
737.998	35.595742
738.205	35.369083
738.412	35.161330
738.618	34.927549
738.825	34.684309
739.032	34.650864
739.238	34.660014
739.445	34.594221
739.651	34.495956
739.858	34.343273
740.064	34.232196
740.271	34.180927
740.477	33.916334
740.684	33.523417
740.890	33.203095
741.097	32.956586
741.303	32.584709
741.510	32.270965
741.716	32.074499
741.922	31.928539
742.129	31.866968
742.335	31.781806
742.541	31.569365
742.748	31.378772
742.954	31.238979
743.160	31.046436
743.366	30.895443
743.573	30.695368
743.779	30.446233
743.985	30.284359
744.191	30.051905
744.397	29.614146
744.604	29.202405
744.810	29.007677
745.016	28.906915
745.222	28.842493
745.428	28.706155
745.634	28.489404
745.840	28.318819
746.046	28.098211
746.252	27.811837
746.458	27.596507
746.664	27.557222
746.870	27.690058
747.076	27.725997
747.282	27.739336
747.488	27.665669
747.694	27.500832
747.900	27.452087
748.105	27.497708
748.311	27.626015
748.517	27.816125
748.723	27.956664
748.929	28.049513
749.134	27.994190
749.340	27.947585
749.546	28.066417
749.752	28.202749
749.957	28.484897
750.163	28.649878
750.369	28.743201
750.574	28.758368
750.780	28.785102
750.985	28.745103
751.191	28.654616
751.397	28.616894
751.602	28.598405
751.808	28.525323
752.013	28.573044
752.219	28.531494
752.424	28.578069
752.630	28.548734
752.835	28.625859
753.041	28.652479
753.246	28.753959
753.451	28.867826
753.657	28.910724
753.862	28.866519
754.067	28.762413
754.273	28.566749
754.478	28.521945
754.683	28.549346
754.889	28.671421
755.094	28.862608
755.299	28.994070
755.504	29.158140
755.710	29.447233
755.915	29.715896
756.120	29.885627
756.325	29.906204
756.530	29.945838
756.735	30.017063
756.940	30.031975
757.146	30.025801
757.351	30.033456
757.556	30.161270
757.761	30.270164
757.966	30.320294
758.171	30.391741
758.376	30.659045
758.581	31.095651
758.786	31.581439
758.990	32.089894
759.195	32.547615
759.400	32.861520
759.605	33.044351
759.810	33.232950
760.015	33.440215
760.220	33.703830
760.424	33.942730
760.629	33.984972
760.834	34.111715
761.039	34.399842
761.244	34.579165
761.448	34.771008
761.653	34.992583
761.858	35.194367
762.062	35.439589
762.267	35.769293
762.472	35.973552
762.676	36.038749
762.881	36.107156
763.085	36.232010
763.290	36.383931
763.494	36.467730
763.699	36.497773
763.903	36.680010
764.108	36.993366
764.312	37.239860
764.517	37.501158
764.721	37.842077
764.926	38.342692
765.130	38.858390
765.335	39.038543
765.539	39.109075
765.743	39.321668
765.948	39.506633
766.152	39.714525
766.356	39.925640
766.560	40.020422
766.765	39.913329
766.969	39.837391
767.173	39.829421
767.377	40.124226
767.582	40.784796
767.786	41.352100
767.990	41.818727
768.194	42.231783
768.398	42.621073
768.602	43.011571
768.806	43.597177
769.010	44.314322
769.215	44.899174
769.419	45.425501
769.623	45.740735
769.827	45.794166
770.031	45.879712
770.234	45.867483
770.438	45.940797
770.642	46.041055
770.846	46.222239
771.050	46.475111
771.254	46.753005
771.458	46.897467
771.662	46.989667
771.866	47.138390
772.069	47.327797
772.273	47.373800
772.477	47.337526
772.681	47.450991
772.885	47.528090
773.088	47.374773
773.292	47.116386
773.496	46.967885
773.699	47.093667
773.903	47.340583
774.107	47.385778
774.310	47.438830
774.514	47.711752
774.717	48.160763
774.921	48.398839
775.124	48.443436
775.328	48.529371
775.531	48.600233
775.735	48.608077
775.938	48.532688
776.142	48.434428
776.345	48.504634
776.549	48.722082
776.752	48.823523
776.956	49.055881
777.159	49.389964
777.362	49.667576
777.566	49.897440
777.769	50.176865
777.972	50.487128
778.176	50.827989
778.379	51.171390
778.582	51.471810
778.785	51.619763
778.989	52.039710
779.192	52.435096
779.395	52.681215
779.598	53.126458
779.801	53.455484
780.004	53.651345
780.207	53.877612
780.411	54.042812
780.614	54.082424
780.817	54.034482
781.020	53.892604
781.223	53.685626
781.426	53.432569
781.629	53.399655
781.832	53.456152
782.035	53.728245
782.238	54.121307
782.440	54.325804
782.643	54.497287
782.846	54.713094
783.049	55.166178
783.252	55.631669
783.455	55.832878
783.658	55.988176
783.860	56.042343
784.063	56.189485
784.266	56.387500
784.469	56.574630
784.671	56.821347
784.874	56.972102
785.077	56.965299
785.279	56.923936
785.482	57.175148
785.685	57.484085
785.887	57.609250
786.090	57.728338
786.293	57.922676
786.495	58.067406
786.698	58.176998
786.900	58.095494
787.103	58.040682
787.305	58.309176
787.508	58.640136
787.710	58.795435
787.913	58.801675
788.115	58.842088
788.317	58.850598
788.520	58.497498
788.722	58.151115
788.924	57.879669
789.127	57.870917
789.329	57.906787
789.531	57.805529
789.734	57.524280
789.936	57.191229
790.138	57.118371
790.340	57.525180
790.543	58.131296
790.745	58.823418
790.947	59.414389
791.149	60.003424
791.351	60.568329
791.553	61.127813
791.756	61.596516
791.958	62.154763
792.160	62.749768
792.362	62.997486
792.564	63.105516
792.766	63.198699
792.968	63.361068
793.170	63.510934
793.372	63.432469
793.574	63.222058
793.776	62.887257
793.978	62.574238
794.180	62.360053
794.381	62.311973
794.583	62.596920
794.785	62.598746
794.987	62.336664
795.189	62.028425
795.391	61.907422
795.592	62.162773
795.794	62.639175
795.996	63.456618
796.198	64.145444
796.399	64.504963
796.601	64.685605
796.803	64.695868
797.004	64.729563
797.206	65.026977
797.407	65.348987
797.609	65.490616
797.811	65.483652
798.012	65.353137
798.214	64.992074
798.415	64.684884
798.617	64.502274
798.818	64.597611
799.020	64.816299
799.221	65.108526
799.423	65.440924
799.624	65.875997
799.826	66.434195
800.027	66.834209
800.228	66.936829
800.430	67.025925
800.631	67.261794
800.832	67.560680
801.034	67.462886
801.235	67.387790
801.436	67.414298
801.637	67.203259
801.839	66.871086
802.040	66.511866
802.241	66.080206
802.442	65.855729
802.643	65.790964
802.844	65.717474
803.046	65.559328
803.247	65.565408
803.448	65.556367
803.649	65.369367
803.850	65.402935
804.051	65.608251
804.252	65.792547
804.453	65.883167
804.654	66.014014
804.855	66.147624
805.056	66.486634
805.257	66.901298
805.458	67.193160
805.659	67.500423
805.859	67.952376
806.060	68.486840
806.261	69.057455
806.462	69.645147
806.663	70.280713
806.864	70.727063
807.064	70.965894
807.265	71.078979
807.466	71.204746
807.667	71.527823
807.867	71.887484
808.068	72.037324
808.269	71.745105
808.469	71.328746
808.670	70.955445
808.870	70.729659
809.071	70.894317
809.272	71.402432
809.472	71.838325
809.673	72.420347
809.873	73.011536
810.074	73.380581
810.274	73.763379
810.475	74.295016
810.675	74.568896
810.876	74.701375
811.076	74.841247
811.276	74.568548
811.477	73.821970
811.677	72.984201
811.878	72.109851
812.078	71.157976
812.278	70.705328
812.479	70.468542
812.679	70.175131
812.879	70.193186
813.079	70.223225
813.280	70.057840
813.480	69.959708
813.680	70.100819
813.880	70.307001
814.080	70.314187
814.280	70.323767
814.480	70.044654
814.681	69.698896
814.881	69.534771
815.081	69.148169
815.281	68.738014
815.481	68.726150
815.681	68.774121
815.881	68.820443
816.081	68.867143
816.281	68.971154
816.481	69.335294
816.681	69.666820
816.880	70.078046
817.080	70.377636
817.280	70.805300
817.480	71.303423
817.680	71.568626
817.880	71.884337
818.080	72.012555
818.279	71.965065
818.479	72.125140
818.679	72.233696
818.879	72.442118
819.078	72.675746
819.278	72.939760
819.478	73.073432
819.677	73.272121
819.877	73.571278
820.077	73.726590
820.276	73.954177
820.476	74.590091
820.675	75.258661
820.875	75.456681
821.074	75.509438
821.274	75.663572
821.473	75.869934
821.673	76.183894
821.872	76.370903
822.072	76.415592
822.271	76.722152
822.471	77.038155
822.670	76.844579
822.869	76.366064
823.069	75.804765
823.268	75.174206
823.467	74.633180
823.667	74.272968
823.866	74.050069
824.065	74.207448
824.265	74.662186
824.464	75.181316
824.663	75.587037
824.862	76.061417
825.061	76.635981
825.261	77.614402
825.460	78.661611
825.659	79.302500
825.858	79.409667
826.057	79.169087
826.256	78.829629
826.455	78.346044
826.654	77.539634
826.853	77.086386
827.052	77.127223
827.251	77.224608
827.450	77.178823
827.649	76.971380
827.848	76.594503
828.047	76.431127
828.246	76.600619
828.445	76.828255
828.644	76.822411
828.843	76.913331
829.041	76.871206
829.240	76.491052
829.439	76.034055
829.638	75.664589
829.836	75.423174
830.035	75.544761
830.234	75.894540
830.433	75.900429
830.631	75.578154
830.830	75.628071
831.029	76.108855
831.227	76.696463
831.426	77.078499
831.624	77.173869
831.823	77.014436
832.022	76.628207
832.220	76.002503
832.419	75.267224
832.617	74.856321
832.816	74.500399
833.014	74.032203
833.213	73.195001
833.411	72.274598
833.609	71.746897
833.808	71.526913
834.006	71.456597
834.205	71.629993
834.403	72.162068
834.601	72.642635
834.800	73.054908
834.998	73.547039
835.196	73.986577
835.394	74.455288
835.593	75.159560
835.791	75.631774
835.989	75.971203
836.187	76.640268
836.385	77.275317
836.584	77.415807
836.782	77.704241
836.980	77.950074
837.178	78.061620
837.376	78.147171
837.574	78.204412
837.772	78.185187
837.970	78.291921
838.168	78.498383
838.366	78.367044
838.564	78.418199
838.762	78.562339
838.960	78.235087
839.158	78.151723
839.356	78.048083
839.554	77.746645
839.752	77.639271
839.949	77.529025
840.147	77.616926
840.345	77.952776
840.543	78.329459
840.741	78.698479
840.938	79.032432
841.136	79.887709
841.334	80.687341
841.532	81.201183
841.729	81.873950
841.927	82.430338
842.125	82.704512
842.322	82.649679
842.520	82.000063
842.718	81.402674
842.915	80.834602
843.113	80.370720
843.310	79.693379
843.508	79.063634
843.705	79.005264
843.903	78.934265
844.100	78.853215
844.298	78.900955
844.495	79.064021
844.693	79.211619
844.890	79.129095
845.087	78.970868
845.285	79.065102
845.482	79.183355
845.679	79.222263
845.877	79.227016
846.074	79.325357
846.271	79.121462
846.469	78.659189
846.666	78.107465
846.863	77.956259
847.060	77.994427
847.257	77.933972
847.455	78.068564
847.652	78.567873
847.849	78.911014
848.046	79.026530
848.243	79.053965
848.440	79.377882
848.637	79.839466
848.834	80.276126
849.031	80.531892
849.228	80.681358
849.425	80.845958
849.622	80.618484
849.819	80.105775
850.016	79.840893
850.213	79.343153
850.410	78.998387
850.607	78.796784
850.804	78.540525
851.001	78.337875
851.198	78.462363
851.394	79.073861
851.591	79.571763
851.788	79.749979
851.985	79.677264
852.181	79.572536
852.378	79.881334
852.575	80.016449
852.772	80.123848
852.968	80.393778
853.165	80.792245
853.362	80.993054
853.558	80.853740
853.755	80.807145
853.951	80.692665
854.148	81.030020
854.345	81.648120
854.541	82.328443
854.738	82.764894
854.934	82.920651
855.131	83.033259
855.327	83.230024
855.523	83.437052
855.720	83.703458
855.916	84.132947
856.113	84.889589
856.309	85.241482
856.505	85.154271
856.702	85.039860
856.898	84.928260
857.094	84.764834
857.291	84.569859
857.487	83.893793
857.683	83.095989
857.879	82.290882
858.076	81.701521
858.272	81.466631
858.468	81.441635
858.664	81.691906
858.860	81.587781
859.056	81.565322
859.253	81.754334
859.449	81.909657
859.645	82.547341
859.841	83.524651
860.037	84.607461
860.233	85.454070
860.429	85.943988
860.625	86.230052
860.821	85.764827
861.017	85.321861
861.213	85.348038
861.409	85.477681
861.604	85.878317
861.800	86.095164
861.996	86.122498
862.192	85.840918
862.388	85.317901
862.584	84.590066
862.779	84.065864
862.975	84.366794
863.171	84.383024
863.367	84.038359
863.562	83.642939
863.758	83.051264
863.954	82.524333
864.149	82.053260
864.345	81.881265
864.541	82.078563
864.736	82.429264
864.932	82.672332
865.127	82.221235
865.323	81.886127
865.518	81.894885
865.714	82.014891
865.910	82.015710
866.105	81.949841
866.300	82.052663
866.496	81.741283
866.691	81.271169
866.887	81.280419
867.082	80.983559
867.277	80.961042
867.473	81.392931
867.668	81.481483
867.864	81.243314
868.059	80.991647
868.254	80.921606
868.449	80.768824
868.645	80.925642
868.840	80.802594
869.035	80.352179
869.230	80.375064
869.425	80.338467
869.621	80.433075
869.816	80.583173
870.011	80.658779
870.206	80.582990
870.401	80.412260
870.596	80.116795
870.791	79.859718
870.986	79.617423
871.181	79.210651
871.376	78.797469
871.571	78.854766
871.766	78.536771
871.961	78.012981
872.156	77.535568
872.351	77.517857
872.546	77.586780
872.741	77.664088
872.936	77.670345
873.130	77.908841
873.325	77.915007
873.520	77.918831
873.715	78.226195
873.910	79.157541
874.104	79.992441
874.299	81.013947
874.494	81.778288
874.688	82.418572
874.883	82.777535
875.078	83.023994
875.272	82.864810
875.467	82.595487
875.662	82.056144
875.856	80.928014
876.051	79.562502
876.245	78.660298
876.440	77.901589
876.634	77.688300
876.829	76.922945
877.023	76.361805
877.218	76.181068
877.412	76.486137
877.607	77.221033
877.801	78.060736
877.995	78.730545
878.190	79.372020
878.384	79.677148
878.578	79.774487
878.773	79.709819
878.967	80.165596
879.161	80.790868
879.356	81.249982
879.550	82.117612
879.744	83.091597
879.938	84.019604
880.133	84.910621
880.327	85.562384
880.521	86.250281
880.715	86.872860
880.909	87.265791
881.103	87.737620
881.297	87.717182
881.491	87.276191
881.685	86.177132
881.880	84.958819
882.073	84.188095
882.267	84.147463
882.461	83.888647
882.655	83.794237
882.849	83.713896
883.043	83.358796
883.237	83.173974
883.431	83.338895
883.625	83.659616
883.819	84.230426
884.013	85.249119
884.206	85.912922
884.400	86.016573
884.594	86.502851
884.788	86.888242
884.982	87.175463
885.175	87.515522
885.369	87.312936
885.563	87.164380
885.756	87.111180
885.950	86.932926
886.144	86.577985
886.337	86.186104
886.531	85.978748
886.724	85.547114
886.918	84.955127
887.112	84.760868
887.305	84.813296
887.499	84.717227
887.692	84.210137
887.885	84.062439
888.079	84.029966
888.272	83.719515
888.466	83.564226
888.659	83.718879
888.853	84.510024
889.046	85.766600
889.239	86.310110
889.433	86.292433
889.626	86.570674
889.819	86.923457
890.013	86.766413
890.206	86.734679
890.399	87.136405
890.592	87.663503
890.785	87.708371
890.979	87.036724
891.172	86.041948
891.365	85.301343
891.558	85.015332
891.751	84.779225
891.944	84.877880
892.137	85.057037
892.330	84.932943
892.524	84.370428
892.717	83.723704
892.910	83.161133
893.103	82.960256
893.296	82.871885
893.488	83.069704
893.681	83.491947
893.874	83.881546
894.067	84.153842
894.260	84.479841
894.453	84.394801
894.646	84.665901
894.839	85.025631
895.031	85.498342
895.224	86.042909
895.417	86.739144
895.610	87.485637
895.802	87.875167
895.995	88.028931
896.188	88.162451
896.381	88.098084
896.573	88.091324
896.766	87.921940
896.958	87.531472
897.151	87.395340
897.344	87.087031
897.536	86.864697
897.729	86.460033
897.921	85.921980
898.114	85.532328
898.306	85.087324
898.499	84.988338
898.691	85.552879
898.884	86.122113
899.076	86.936872
899.269	87.078047
899.461	86.871293
899.653	86.565036
899.846	86.655025
900.038	87.113105
900.230	87.557768
900.423	87.798233
900.615	87.815963
900.807	87.533844
901.000	87.170248
901.192	86.443322
901.384	85.696590
901.576	85.452746
901.768	85.102514
901.961	84.340007
902.153	83.789936
902.345	83.320469
902.537	83.377541
902.729	83.603080
902.921	84.007542
903.113	83.944288
903.305	84.031770
903.497	84.671488
903.689	85.027427
903.881	85.263856
904.073	85.669890
904.265	85.829805
904.457	86.176746
904.649	86.136041
904.841	85.838096
905.033	86.041438
905.224	86.726233
905.416	87.374909
905.608	87.833820
905.800	87.960358
905.992	88.117372
906.183	88.573228
906.375	88.702648
906.567	88.678222
906.759	88.536253
906.950	88.361015
907.142	87.773989
907.334	87.335888
907.525	87.104784
907.717	86.999690
907.909	87.202365
908.100	87.595524
908.292	87.640742
908.483	87.557964
908.675	87.855262
908.866	88.480752
909.058	89.156485
909.249	89.623786
909.441	89.421391
909.632	88.785026
909.824	87.950315
910.015	87.584974
910.206	87.515948
910.398	86.968917
910.589	86.909670
910.780	86.751026
910.972	86.284135
911.163	86.371929
911.354	86.611513
911.546	87.069724
911.737	87.694113
911.928	88.495471
912.119	88.644402
912.310	88.356595
912.502	88.299692
912.693	87.750662
912.884	87.250890
913.075	87.164884
913.266	86.503429
913.457	85.950092
913.648	85.928064
913.839	86.271161
914.030	86.509487
914.221	86.728618
914.412	87.100206
914.603	87.876675
914.794	88.784046
914.985	89.417176
915.176	89.751725
915.367	89.884735
915.558	89.863532
915.749	89.554660
915.940	88.638166
916.130	87.721989
916.321	87.329534
916.512	86.449493
916.703	85.749726
916.893	84.893880
917.084	83.489103
917.275	82.083351
917.466	81.151535
917.656	80.693052
917.847	80.347240
918.038	80.044375
918.228	79.907594
918.419	80.075991
918.609	80.639645
918.800	80.999015
918.990	81.801776
919.181	83.114126
919.372	84.275199
919.562	85.211914
919.753	85.806307
919.943	86.431393
920.133	87.513366
920.324	88.099627
920.514	87.870725
920.705	87.583082
920.895	87.178310
921.085	86.659733
921.276	86.446126
921.466	86.631671
921.656	86.526730
921.847	85.801740
922.037	85.224498
922.227	84.903485
922.417	84.580943
922.608	84.444847
922.798	84.478653
922.988	84.521656
923.178	84.905149
923.368	84.939422
923.558	85.065032
923.748	85.891346
923.939	87.011426
924.129	87.726199
924.319	87.632165
924.509	87.440425
924.699	87.155383
924.889	86.542850
925.079	86.000494
925.269	85.419195
925.459	85.215806
925.648	84.595943
925.838	83.737556
926.028	82.928371
926.218	82.627991
926.408	82.913890
926.598	83.274839
926.788	84.138214
926.977	84.858525
927.167	85.544201
927.357	86.149132
927.547	86.685084
927.736	87.413936
927.926	88.405678
928.116	89.316960
928.305	89.505329
928.495	89.190736
928.685	89.149588
928.874	88.894866
929.064	88.851461
929.253	88.736079
929.443	88.604603
929.633	88.460123
929.822	88.521131
930.012	88.181456
930.201	87.709947
930.391	87.508536
930.580	87.521737
930.769	88.060107
930.959	88.372966
931.148	89.078724
931.338	89.790525
931.527	89.990712
931.716	89.763245
931.906	89.128108
932.095	88.731821
932.284	88.355474
932.474	88.110899
932.663	87.788695
932.852	87.035516
933.041	86.572515
933.230	85.879386
933.420	85.434393
933.609	85.149485
933.798	85.001044
933.987	84.775205
934.176	84.452730
934.365	85.062947
934.554	86.183303
934.743	87.005372
934.932	87.378987
935.121	87.013920
935.310	86.521322
935.499	85.693091
935.688	85.414579
935.877	84.892286
936.066	84.995624
936.255	85.071154
936.444	84.483255
936.633	83.320154
936.822	82.819177
937.010	82.741691
937.199	82.753093
937.388	82.898972
937.577	83.285675
937.766	83.755076
937.954	84.834160
938.143	85.689354
938.332	86.369222
938.520	87.385755
938.709	88.417246
938.898	88.126156
939.086	87.557381
939.275	87.600727
939.464	87.754679
939.652	87.768309
939.841	87.406904
940.029	87.106657
940.218	86.973711
940.406	87.018375
940.595	86.508525
940.783	85.915258
940.972	86.241828
941.160	86.777983
941.349	87.511868
941.537	87.876376
941.725	88.436712
941.914	89.701533
942.102	90.528148
942.290	90.727398
942.479	90.973037
942.667	91.032807
942.855	90.896918
943.043	91.038926
943.232	90.966429
943.420	90.359240
943.608	90.232420
943.796	90.459676
943.984	89.741423
944.172	89.154168
944.361	88.930391
944.549	88.721348
944.737	89.398265
944.925	89.870678
945.113	90.182306
945.301	90.949847
945.489	91.811105
945.677	92.247893
945.865	92.029651
946.053	92.063530
946.241	91.851160
946.429	91.466665
946.617	91.597396
946.805	91.260191
946.992	91.212233
947.180	91.241833
947.368	91.276249
947.556	91.490008
947.744	92.126394
947.931	93.016589
948.119	93.799938
948.307	94.124584
948.495	94.474608
948.682	94.086118
948.870	93.622243
949.058	93.437868
949.245	93.038663
949.433	92.051431
949.621	91.021398
949.808	90.182764
949.996	89.148103
950.183	88.102213
950.371	87.847425
950.558	87.289760
950.746	86.874108
950.933	86.471004
951.121	85.881284
951.308	85.336415
951.496	85.157586
951.683	84.451202
951.870	83.732542
952.058	83.402764
952.245	82.918939
952.433	82.585896
952.620	82.498598
952.807	82.081388
952.994	81.760047
953.182	82.149282
953.369	82.524316
953.556	83.042641
953.743	84.138017
953.931	84.858688
954.118	85.393523
954.305	86.467497
954.492	87.142514
954.679	87.836796
954.866	88.428502
955.053	89.059806
955.240	89.426514
955.427	89.887615
955.615	90.087829
955.802	90.263084
955.989	90.358122
956.175	90.590618
956.362	90.401522
956.549	90.008716
956.736	90.500331
956.923	91.178884
957.110	92.139134
957.297	92.603934
957.484	93.131334
957.671	93.279131
957.857	92.884195
958.044	92.451853
958.231	91.755338
958.418	91.502749
958.604	91.429018
958.791	90.540948
958.978	89.798133
959.165	88.631683
959.351	87.413152
959.538	86.516329
959.724	85.938714
959.911	85.666761
960.098	85.446966
960.284	85.916310
960.471	85.859429
960.657	86.154843
960.844	86.896866
961.030	87.052271
961.217	86.823315
961.403	87.437619
961.590	87.550410
961.776	88.033483
961.963	88.564794
962.149	89.078015
962.335	88.791290
962.522	88.701798
962.708	88.109765
962.894	87.162641
963.081	87.025677
963.267	87.833043
963.453	87.936712
963.639	88.150912
963.826	87.933483
964.012	87.587204
964.198	87.565632
964.384	87.821661
964.570	87.873775
964.756	87.839467
964.943	88.287709
965.129	88.259071
965.315	87.414039
965.501	86.238350
965.687	85.020211
965.873	84.354497
966.059	84.196222
966.245	84.026242
966.431	84.239835
966.617	84.275176
966.803	84.471479
966.989	84.066972
967.174	84.164975
967.360	84.552977
967.546	85.460827
967.732	85.743765
967.918	85.847403
968.104	86.315624
968.289	85.712470
968.475	84.459156
968.661	84.422077
968.847	84.499840
969.032	84.818867
969.218	85.229372
969.404	85.481387
969.589	85.851191
969.775	86.890689
969.961	87.398983
970.146	87.521685
970.332	88.951588
970.517	90.419112
970.703	90.447683
970.888	90.727892
971.074	91.203142
971.260	90.979226
971.445	90.875924
971.630	90.518287
971.816	89.936871
972.001	89.788779
972.187	89.548048
972.372	89.000099
972.557	89.075650
972.743	89.613638
972.928	89.676230
973.113	89.212781
973.299	89.111945
973.484	89.150144
973.669	88.819885
973.854	89.722523
974.040	90.627772
974.225	91.412578
974.410	91.683936
974.595	91.253424
974.780	90.712301
974.965	90.275011
975.151	90.393887
975.336	90.717636
975.521	91.654511
975.706	92.667380
975.891	92.135580
976.076	91.760014
976.261	91.396835
976.446	91.502865
976.631	92.007166
976.816	92.840431
977.001	93.582680
977.186	93.874004
977.370	93.798972
977.555	93.174909
977.740	91.681339
977.925	90.923360
978.110	90.218554
978.295	89.194802
978.479	88.124211
978.664	87.253168
978.849	86.097505
979.034	85.001044
979.218	84.032889
979.403	83.611169
979.588	82.963127
979.772	83.350663
979.957	83.958916
980.141	84.094830
980.326	83.688797
980.511	83.926436
980.695	84.104072
980.880	83.928738
981.064	84.330761
981.249	85.612465
981.433	85.783577
981.618	86.171261
981.802	86.683403
981.987	87.372505
982.171	87.694483
982.355	89.298131
982.540	90.403792
982.724	91.528686
982.908	92.950500
983.093	94.303162
983.277	93.919391
983.461	94.409505
983.646	95.061001
983.830	95.106975
984.014	94.883245
984.198	94.307819
984.382	93.444909
984.567	93.098314
984.751	92.899689
984.935	92.990766
985.119	92.516590
985.303	92.411498
985.487	92.372051
985.671	91.327672
985.855	91.549145
986.039	91.540187
986.223	92.329522
986.407	93.513801
986.591	93.736539
986.775	92.880233
986.959	92.497958
987.143	92.261780
987.327	92.451832
987.511	92.060316
987.695	92.335419
987.879	92.012896
988.062	91.815759
988.246	91.209004
988.430	90.860625
988.614	91.475400
988.797	92.335641
988.981	92.650347
989.165	92.882939
989.349	93.253882
989.532	94.335257
989.716	94.833620
989.900	95.435588
990.083	95.131336
990.267	95.346655
990.450	95.645738
990.634	95.192555
990.817	94.580758
991.001	94.080431
991.184	93.516229
991.368	92.882542
991.551	91.882754
991.735	91.516404
991.918	90.863209
992.102	90.989300
992.285	90.753270
992.469	89.288479
992.652	88.510676
992.835	88.583728
993.019	88.721215
993.202	89.016136
993.385	88.940324
993.568	89.703063
993.752	89.463509
993.935	89.598169
994.118	89.562792
994.301	89.713314
994.484	90.352689
994.668	91.061791
994.851	91.163419
995.034	91.046313
995.217	90.745980
995.400	90.819319
995.583	90.112981
995.766	91.279081
995.949	91.710028
996.132	92.095627
996.315	92.565401
996.498	92.365011
996.681	91.522143
996.864	91.686087
997.047	91.852674
997.230	91.774851
997.413	91.647527
997.596	91.584356
997.778	90.378772
997.961	89.764172
998.144	88.895874
998.327	87.986579
998.510	87.445298
998.692	87.875400
998.875	87.332191
999.058	87.280131
999.241	87.665462
999.423	87.505996
999.606	87.116741
999.789	86.721885
999.971	86.658053
1000.154	87.469357
1000.336	87.666213
1000.519	87.449420
1000.701	86.478724
1000.884	86.635670
1001.067	86.307333
1001.249	85.040951
1001.431	84.593850
1001.614	85.509708
1001.796	86.675083
1001.979	86.772713
1002.161	86.433979
1002.344	86.545103
1002.526	87.129083
1002.708	87.373680
1002.891	86.349283
1003.073	86.545827
1003.255	87.718482
1003.438	88.303580
1003.620	87.412539
1003.802	87.707796
1003.984	89.087232
1004.166	89.508306
1004.349	90.047349
1004.531	91.263444
1004.713	92.550338
1004.895	93.376558
1005.077	93.408661
1005.259	93.298717
1005.441	93.435463
1005.623	94.098654
1005.805	93.492928
1005.987	92.033439
1006.169	91.593964
1006.351	91.265930
1006.533	90.550474
1006.715	90.077848
1006.897	89.948511
1007.079	89.860167
1007.261	89.548324
1007.443	89.670973
1007.625	89.809207
1007.806	89.624048
1007.988	89.625512
1008.170	89.290317
1008.352	89.552854
1008.534	89.696546
1008.715	89.019710
1008.897	89.453072
1009.079	89.573676
1009.260	90.051424
1009.442	89.944585
1009.624	89.428152
1009.805	89.041281
1009.987	88.836158
1010.169	89.142904
1010.350	89.523753
1010.532	89.546145
1010.713	90.658189
1010.895	90.724336
1011.076	90.253992
1011.258	89.904912
1011.439	89.823206
1011.621	90.754626
1011.802	91.928156
1011.983	92.158399
1012.165	91.815547
1012.346	91.597637
1012.527	91.026597
1012.709	90.475509
1012.890	90.689773
1013.071	91.783297
1013.253	92.674806
1013.434	93.129958
1013.615	92.952623
1013.796	92.842892
1013.978	93.963926
1014.159	95.344182
1014.340	95.976601
1014.521	96.625392
1014.702	97.060821
1014.883	96.805984
1015.064	96.152257
1015.245	96.196938
1015.427	96.010976
1015.608	94.983527
1015.789	94.600064
1015.970	94.184003
1016.151	94.343860
1016.332	94.379949
1016.512	95.015206
1016.693	95.041808
1016.874	94.831228
1017.055	94.382333
1017.236	93.532567
1017.417	92.361700
1017.598	92.036656
1017.779	92.410276
1017.959	91.748623
1018.140	90.436691
1018.321	90.479353
1018.502	90.603208
1018.682	90.130566
1018.863	89.627087
1019.044	90.105257
1019.224	90.202487
1019.405	91.586495
1019.586	92.551149
1019.766	91.988955
1019.947	92.929391
1020.127	93.899435
1020.308	93.089837
1020.488	92.804493
1020.669	93.378604
1020.849	94.575475
1021.030	95.113888
1021.210	95.087432
1021.391	93.692609
1021.571	92.974868
1021.752	93.440473
1021.932	93.051715
1022.112	93.458429
1022.293	94.621364
1022.473	94.419606
1022.653	94.669216
1022.834	95.353025
1023.014	95.107424
1023.194	95.381821
1023.374	96.416754
1023.555	96.750309
1023.735	96.277271
1023.915	96.260255
1024.095	96.029598
1024.275	95.248427
1024.455	96.071317
1024.635	96.475317
1024.816	95.583639
1024.996	95.415393
1025.176	95.824080
1025.356	96.749833
1025.536	96.955684
1025.716	97.212247
1025.896	97.332084
1026.076	96.967234
1026.256	96.496802
1026.436	95.530320
1026.615	95.330699
1026.795	95.199484
1026.975	94.320329
1027.155	94.556021
1027.335	93.506564
1027.515	93.446095
1027.695	92.882862
1027.874	91.808313
1028.054	90.823231
1028.234	90.677006
1028.413	90.557620
1028.593	90.394015
1028.773	91.027101
1028.953	92.321668
1029.132	91.579867
1029.312	92.548043
1029.491	93.609390
1029.671	94.111454
1029.851	96.111472
1030.030	98.649140
1030.210	99.342386
1030.389	99.246329
1030.569	98.603931
1030.748	98.272017
1030.928	98.188682
1031.107	97.794174
1031.286	96.729219
1031.466	95.463373
1031.645	95.563060
1031.825	95.386143
1032.004	94.400964
1032.183	94.913671
1032.363	94.974224
1032.542	95.168828
1032.721	94.910160
1032.900	94.313973
1033.080	94.739993
1033.259	95.035931
1033.438	96.040650
1033.617	96.247797
1033.796	95.153608
1033.975	94.188565
1034.155	93.524624
1034.334	93.841125
1034.513	93.551288
1034.692	93.484222
1034.871	93.351314
1035.050	93.924827
1035.229	94.913265
1035.408	95.027526
1035.587	95.057176
1035.766	95.220171
1035.945	94.968055
1036.124	94.203003
1036.303	93.378331
1036.481	93.603326
1036.660	94.190855
1036.839	94.722626
1037.018	94.990614
1037.197	94.584789
1037.376	93.863134
1037.554	93.972101
1037.733	94.136859
1037.912	95.598754
1038.091	96.713973
1038.269	98.219346
1038.448	98.162822
1038.627	97.192128
1038.805	96.986239
1038.984	96.010177
1039.162	94.382290
1039.341	94.088753
1039.520	94.318716
1039.698	94.388245
1039.877	92.625060
1040.055	91.653857
1040.234	91.173488
1040.412	91.002853
1040.591	90.157380
1040.769	89.499954
1040.947	89.886767
1041.126	90.953340
1041.304	90.619078
1041.483	90.152813
1041.661	89.735264
1041.839	89.849127
1042.017	89.471138
1042.196	88.883181
1042.374	88.440729
1042.552	88.546637
1042.730	88.667825
1042.909	89.136426
1043.087	89.006594
1043.265	89.878513
1043.443	89.856190
1043.621	90.510347
1043.799	91.167102
1043.978	90.518318
1044.156	90.012749
1044.334	90.639535
1044.512	92.004941
1044.690	92.071071
1044.868	91.934540
1045.046	91.462768
1045.224	90.259827
1045.402	90.150363
1045.580	89.343117
1045.758	88.837881
1045.935	90.607156
1046.113	91.777297
1046.291	91.941636
1046.469	91.463093
1046.647	91.389115
1046.825	90.914936
1047.002	91.844969
1047.180	93.088435
1047.358	92.922992
1047.536	93.346084
1047.713	93.931463
1047.891	93.619773
1048.069	93.566693
1048.246	93.507899
1048.424	93.469447
1048.602	93.604241
1048.779	93.301206
1048.957	93.001016
1049.134	92.393547
1049.312	92.389812
1049.489	92.691475
1049.667	92.884530
1049.844	93.012774
1050.022	92.036923
1050.199	90.870863
1050.377	90.375419
1050.554	90.816043
1050.731	91.289844
1050.909	91.238677
1051.086	91.560963
1051.263	91.266309
1051.441	91.041089
1051.618	90.549535
1051.795	90.394391
1051.973	90.583102
1052.150	91.162808
1052.327	91.658144
1052.504	91.688073
1052.681	90.461592
1052.859	89.625391
1053.036	89.582647
1053.213	90.664456
1053.390	91.347808
1053.567	92.159737
1053.744	92.145759
1053.921	92.692203
1054.098	93.659947
1054.275	93.739524
1054.452	93.387167
1054.629	94.295488
1054.806	94.948094
1054.983	94.951768
1055.160	94.896747
1055.337	94.555300
1055.514	93.489888
1055.691	93.341606
1055.868	92.793039
1056.044	91.979836
1056.221	91.964992
1056.398	92.095121
1056.575	91.931557
1056.751	92.123013
1056.928	92.622708
1057.105	92.375296
1057.282	91.711925
1057.458	91.685453
1057.635	90.861398
1057.812	91.089978
1057.988	90.664913
1058.165	89.819787
1058.341	89.562935
1058.518	89.752748
1058.694	89.726669
1058.871	88.971601
1059.047	88.316726
1059.224	87.803972
1059.401	87.998795
1059.577	88.391479
1059.753	88.656864
1059.930	89.163059
1060.106	90.208347
1060.282	90.743972
1060.459	91.223494
1060.635	90.950692
1060.812	90.597711
1060.988	90.123023
1061.164	90.685337
1061.340	90.440490
1061.517	90.708945
1061.693	90.206941
1061.869	89.725575
1062.045	89.050637
1062.221	88.609873
1062.398	88.067238
1062.574	87.472730
1062.750	87.977535
1062.926	89.244944
1063.102	88.479970
1063.278	88.518927
1063.454	89.239593
1063.630	89.886808
1063.806	90.207181
1063.982	90.176071
1064.158	90.090845
1064.334	89.837092
1064.510	90.109017
1064.686	89.972434
1064.862	89.419816
1065.038	89.259563
1065.214	88.762055
1065.389	86.958808
1065.565	86.150055
1065.741	86.513553
1065.917	87.312830
1066.093	87.240272
1066.268	87.081175
1066.444	86.956942
1066.620	87.328710
1066.795	87.478717
1066.971	88.551613
1067.147	89.025915
1067.322	90.336862
1067.498	91.350116
1067.673	91.454862
1067.849	91.353263
1068.025	92.000162
1068.200	92.940810
1068.376	93.567044
1068.551	93.037126
1068.727	92.752339
1068.902	92.442333
1069.078	92.527484
1069.253	92.333955
1069.428	91.630372
1069.604	91.147424
1069.779	90.272859
1069.954	89.162027
1070.130	88.899006
1070.305	88.558487
1070.480	88.764052
1070.656	89.404141
1070.831	89.838811
1071.006	89.734483
1071.181	89.855099
1071.357	90.082051
1071.532	90.654143
1071.707	90.883417
1071.882	91.230024
1072.057	90.860280
1072.232	90.667499
1072.407	89.623663
1072.582	88.694239
1072.757	88.118002
1072.932	88.939150
1073.107	88.874203
1073.282	88.106206
1073.457	87.360505
1073.632	87.060497
1073.807	86.869277
1073.982	86.385759
1074.157	86.322927
1074.332	86.592216
1074.507	86.392396
1074.682	85.708087
1074.856	84.198843
1075.031	83.440339
1075.206	84.364126
1075.381	85.120678
1075.556	85.893266
1075.730	86.095698
1075.905	85.809200
1076.080	85.274453
1076.254	85.533812
1076.429	86.456508
1076.604	87.356183
1076.778	88.150507
1076.953	88.538091
1077.127	87.547264
1077.302	85.846753
1077.477	84.267170
1077.651	83.983473
1077.826	84.740656
1078.000	85.596803
1078.175	85.433080
1078.349	84.164982
1078.523	83.522188
1078.698	83.572710
1078.872	83.899529
1079.047	84.749314
1079.221	85.691042
1079.395	86.628226
1079.570	86.521967
1079.744	86.576633
1079.918	85.781678
1080.092	85.776628
1080.267	86.303722
1080.441	86.441063
1080.615	85.995950
1080.789	86.016313
1080.963	85.485916
1081.137	84.519505
1081.312	84.097872
1081.486	84.104057
1081.660	84.001438
1081.834	84.051774
1082.008	83.632155
1082.182	83.637214
1082.356	83.483019
1082.530	83.507628
1082.704	82.376376
1082.878	82.206645
1083.052	83.070171
1083.226	83.216461
1083.400	83.102725
1083.573	82.897402
1083.747	83.385677
1083.921	83.713946
1084.095	83.385616
1084.269	83.962239
1084.443	84.141314
1084.616	85.392152
1084.790	86.116500
1084.964	86.339694
1085.138	86.232938
1085.311	85.864441
1085.485	85.113183
1085.659	84.594337
1085.832	84.487410
1086.006	83.896388
1086.179	83.148340
1086.353	83.002429
1086.527	82.122016
1086.700	80.669065
1086.874	79.737721
1087.047	79.613761
1087.221	80.054485
1087.394	80.816002
1087.568	81.131672
1087.741	82.233298
1087.914	83.268819
1088.088	83.820691
1088.261	83.458107
1088.435	83.430109
1088.608	84.327706
1088.781	85.402123
1088.954	86.447876
1089.128	86.290917
1089.301	85.893115
1089.474	85.531111
1089.647	84.359170
1089.821	83.762505
1089.994	83.540969
1090.167	84.114395
1090.340	84.986980
1090.513	84.718488
1090.686	83.844898
1090.859	83.065108
1091.032	82.569068
1091.206	82.367747
1091.379	82.399721
1091.552	82.535451
1091.725	83.406824
1091.898	83.386152
1092.071	83.200220
1092.244	82.580806
1092.416	82.902907
1092.589	82.662142
1092.762	82.472024
1092.935	83.279488
1093.108	84.065750
1093.281	83.882664
1093.453	83.253576
1093.626	82.487603
1093.799	82.738719
1093.972	82.928469
1094.145	82.931501
1094.317	82.855076
1094.490	83.312126
1094.663	82.963338
1094.835	82.233670
1095.008	80.866252
1095.181	80.577096
1095.353	80.937932
1095.526	80.828229
1095.698	80.280915
1095.871	80.099005
1096.043	79.811751
1096.216	79.502524
1096.388	79.477937
1096.561	79.210683
1096.733	78.928833
1096.906	79.735373
1097.078	80.352433
1097.250	80.358172
1097.423	80.385150
1097.595	80.537858
1097.768	80.367757
1097.940	80.899861
1098.112	81.319182
1098.284	81.534836
1098.457	82.303735
1098.629	83.267319
1098.801	83.391166
1098.973	82.857769
1099.146	82.448451
1099.318	82.448170
1099.490	81.900876
1099.662	81.710950
1099.834	81.044910
1100.006	80.198064
1100.178	79.720435
1100.350	79.491384
1100.522	79.328456
1100.694	79.279431
1100.866	79.222143
1101.038	79.545849
1101.210	79.266383
1101.382	79.459586
1101.554	79.248613
1101.726	79.757197
1101.898	79.846162
1102.070	79.763905
1102.241	80.066778
1102.413	79.809511
1102.585	79.612311
1102.757	80.554399
1102.929	80.732587
1103.100	81.084442
1103.272	80.923540
1103.444	81.298410
1103.616	80.909528
1103.787	80.635255
1103.959	80.518056
1104.130	80.064898
1104.302	80.317447
1104.474	80.424247
1104.645	79.975077
1104.817	80.181005
1104.988	80.248330
1105.160	81.196525
1105.331	81.447223
1105.503	81.485698
1105.674	81.926224
1105.846	82.000130
1106.017	81.491443
1106.189	80.903929
1106.360	80.258800
1106.531	79.591035
1106.703	78.906160
1106.874	78.075620
1107.045	77.259580
1107.217	76.791662
1107.388	76.328793
1107.559	75.569380
1107.730	75.006974
1107.902	75.625466
1108.073	76.280031
1108.244	76.952059
1108.415	77.413529
1108.586	77.577203
1108.757	77.512756
1108.929	77.411602
1109.100	76.935140
1109.271	76.633574
1109.442	76.717906
1109.613	77.483215
1109.784	77.498082
1109.955	77.063305
1110.126	76.525258
1110.297	76.180491
1110.468	76.301091
1110.639	76.825689
1110.809	76.958023
1110.980	77.729113
1111.151	78.445629
1111.322	78.609278
1111.493	78.506755
1111.664	77.799919
1111.834	77.365364
1112.005	77.468423
1112.176	77.824072
1112.347	77.475190
1112.517	77.222398
1112.688	76.509100
1112.859	75.279116
1113.029	74.832099
1113.200	75.161484
1113.371	75.209410
1113.541	75.505093
1113.712	75.711797
1113.882	75.517564
1114.053	74.819101
1114.223	75.136314
1114.394	75.257119
1114.564	75.530580
1114.735	76.112700
1114.905	76.205441
1115.076	75.955313
1115.246	75.281653
1115.416	74.716718
1115.587	73.993162
1115.757	73.380129
1115.927	73.443625
1116.098	72.623135
1116.268	71.956958
1116.438	72.065877
1116.609	72.159670
1116.779	72.239030
1116.949	72.102803
1117.119	72.033895
1117.289	72.485197
1117.459	72.982410
1117.630	74.043054
1117.800	74.991618
1117.970	75.537194
1118.140	76.035647
1118.310	76.044799
1118.480	75.608307
1118.650	75.947326
1118.820	76.537943
1118.990	76.433708
1119.160	75.991692
1119.330	76.065325
1119.500	75.470828
1119.670	74.737963
1119.840	74.542037
1120.010	74.032764
1120.179	73.834370
1120.349	74.041255
1120.519	73.118664
1120.689	72.340189
1120.859	72.560981
1121.028	72.923661
1121.198	72.673109
1121.368	72.624509
1121.538	72.296407
1121.707	72.176776
1121.877	72.513352
1122.047	72.561030
1122.216	72.113864
1122.386	72.301118
1122.555	72.407929
1122.725	72.816754
1122.894	72.559100
1123.064	72.243982
1123.233	71.747934
1123.403	71.708992
1123.573	71.522283
1123.742	70.963693
1123.911	70.258755
1124.081	70.246570
1124.250	70.717913
1124.419	71.027712
1124.589	70.304270
1124.758	69.957578
1124.927	69.786086
1125.097	69.358784
1125.266	68.952022
1125.435	68.752575
1125.605	69.001983
1125.774	69.452011
1125.943	69.638339
1126.112	69.193752
1126.281	69.002597
1126.450	69.592709
1126.620	70.105112
1126.789	70.350495
1126.958	71.141011
1127.127	72.152545
1127.296	73.294341
1127.465	74.043880
1127.634	74.903011
1127.803	75.423211
1127.972	75.302594
1128.141	74.831999
1128.310	73.857143
1128.479	73.617547
1128.648	73.629132
1128.817	73.831427
1128.985	73.441570
1129.154	72.392933
1129.323	71.945137
1129.492	71.271187
1129.661	70.840397
1129.829	71.119860
1129.998	71.464486
1130.167	72.132436
1130.336	72.229179
1130.504	72.450354
1130.673	72.556969
1130.842	72.449541
1131.010	72.424991
1131.179	71.818530
1131.347	71.442450
1131.516	70.946574
1131.685	70.027196
1131.853	69.355178
1132.022	68.744305
1132.190	68.483353
1132.359	68.171281
1132.527	67.820777
1132.696	67.398035
1132.864	67.407204
1133.032	67.010313
1133.201	66.962079
1133.369	67.221671
1133.537	67.952458
1133.706	68.320475
1133.874	68.990646
1134.042	68.360847
1134.211	68.077181
1134.379	67.945281
1134.547	68.144318
1134.715	68.397844
1134.884	69.439228
1135.052	69.615230
1135.220	69.369371
1135.388	69.314300
1135.556	69.485052
1135.724	69.196739
1135.892	69.741371
1136.060	69.954266
1136.228	69.647027
1136.396	69.641679
1136.564	69.019651
1136.732	68.280968
1136.900	68.124402
1137.068	68.317982
1137.236	68.041820
1137.404	67.775990
1137.572	67.785267
1137.740	67.940655
1137.908	67.796557
1138.076	68.139034
1138.243	68.262654
1138.411	68.535864
1138.579	68.896255
1138.747	68.763076
1138.914	68.527258
1139.082	68.061999
1139.250	67.668585
1139.417	67.566369
1139.585	67.198512
1139.753	67.299781
1139.920	67.134622
1140.088	66.755441
1140.256	66.635657
1140.423	66.266236
1140.591	66.425148
1140.758	66.584842
1140.926	66.734393
1141.093	67.107580
1141.261	66.877405
1141.428	66.968435
1141.596	66.966274
1141.763	66.678626
1141.930	66.561445
1142.098	66.686850
1142.265	66.752449
1142.432	66.744631
1142.600	66.794975
1142.767	66.946887
1142.934	66.513098
1143.102	66.145261
1143.269	66.017714
1143.436	66.265965
1143.603	66.264343
1143.771	66.296962
1143.938	66.185297
1144.105	66.247173
1144.272	65.934768
1144.439	65.581760
1144.606	65.673449
1144.773	66.468263
1144.940	67.148269
1145.107	66.966034
1145.274	66.414711
1145.441	66.317230
1145.608	66.755744
1145.775	67.476135
1145.942	67.356558
1146.109	67.344061
1146.276	67.449032
1146.443	67.116412
1146.610	66.645518
1146.776	66.465934
1146.943	66.622743
1147.110	66.238503
1147.277	66.369391
1147.444	65.909382
1147.610	65.156921
1147.777	65.146416
1147.944	65.923126
1148.110	66.237047
1148.277	66.461960
1148.444	66.496672
1148.610	66.427223
1148.777	66.181215
1148.944	66.638784
1149.110	66.893045
1149.277	67.042606
1149.443	67.053953
1149.610	66.875732
1149.776	66.346005
1149.943	65.924482
1150.109	65.243914
1150.276	64.581249
1150.442	64.451923
1150.608	64.557482
1150.775	64.498379
1150.941	64.060800
1151.107	63.696510
1151.274	63.354936
1151.440	63.475150
1151.606	63.231265
1151.773	62.900133
1151.939	62.944823
1152.105	63.346495
1152.271	63.551283
1152.438	63.563097
1152.604	63.556470
1152.770	64.063606
1152.936	64.770197
1153.102	65.455049
1153.268	65.425812
1153.434	65.326816
1153.600	65.656218
1153.766	66.194868
1153.932	66.615395
1154.098	66.449336
1154.264	66.589356
1154.430	66.846596
1154.596	66.750758
1154.762	66.567088
1154.928	66.108774
1155.094	66.472244
1155.260	66.945440
1155.426	67.297161
1155.591	67.137243
1155.757	66.682994
1155.923	65.958240
1156.089	65.726065
1156.255	65.657014
1156.420	65.280195
1156.586	65.242254
1156.752	65.398443
1156.917	65.256347
1157.083	65.152547
1157.249	64.748561
1157.414	64.613352
1157.580	64.377577
1157.745	65.012487
1157.911	65.413683
1158.076	65.161326
1158.242	65.458397
1158.407	65.274894
1158.573	65.337050
1158.738	65.580472
1158.904	65.407606
1159.069	64.887346
1159.235	65.184821
1159.400	65.510302
1159.565	65.356116
1159.731	65.454848
1159.896	65.560553
1160.061	65.357178
1160.227	65.413647
1160.392	65.492103
1160.557	65.423049
1160.722	65.134307
1160.888	65.830307
1161.053	66.127960
1161.218	66.636751
1161.383	66.831145
1161.548	66.042635
1161.713	65.845513
1161.878	65.961002
1162.043	65.748242
1162.208	65.040846
1162.374	64.620881
1162.539	65.012483
1162.704	64.972540
1162.869	64.648379
1163.033	64.019441
1163.198	64.126261
1163.363	64.906716
1163.528	65.153861
1163.693	64.960764
1163.858	65.497018
1164.023	66.327319
1164.188	66.457495
1164.353	66.443063
1164.517	66.425667
1164.682	66.420802
1164.847	66.816048
1165.011	67.062347
1165.176	67.375500
1165.341	67.324956
1165.506	67.219987
1165.670	66.543459
1165.835	65.882267
1166.000	65.956280
1166.164	65.943667
1166.329	65.723187
1166.493	65.637090
1166.658	65.312508
1166.822	65.135038
1166.987	64.740777
1167.151	64.828530
1167.316	64.925598
1167.480	65.046334
1167.645	65.086639
1167.809	64.912458
1167.973	64.792199
1168.138	65.204183
1168.302	65.336057
1168.466	65.289855
1168.631	64.937615
1168.795	64.782094
1168.959	65.107672
1169.124	65.840549
1169.288	66.548812
1169.452	67.137465
1169.616	67.662559
1169.780	67.683824
1169.944	67.984519
1170.109	68.366106
1170.273	68.628778
1170.437	68.706716
1170.601	68.696624
1170.765	68.209111
1170.929	67.860982
1171.093	66.934611
1171.257	66.558196
1171.421	66.226143
1171.585	66.221863
1171.749	65.882673
1171.913	65.231460
1172.077	65.035174
1172.240	65.034847
1172.404	65.295764
1172.568	66.103551
1172.732	66.210610
1172.896	66.975409
1173.060	67.231068
1173.223	67.571233
1173.387	67.958027
1173.551	67.936579
1173.715	68.308019
1173.878	68.301082
1174.042	68.304208
1174.206	68.111576
1174.369	67.444148
1174.533	66.981711
1174.696	66.411884
1174.860	66.252838
1175.023	65.824293
1175.187	65.514659
1175.351	65.342422
1175.514	65.147900
1175.677	65.176821
1175.841	64.815167
1176.004	64.160672
1176.168	64.208814
1176.331	64.662087
1176.495	65.309047
1176.658	65.321398
1176.821	65.692958
1176.985	65.815893
1177.148	66.079326
1177.311	66.321272
1177.474	66.232605
1177.638	66.330079
1177.801	66.986929
1177.964	67.036287
1178.127	66.389286
1178.291	65.561996
1178.454	65.524242
1178.617	65.263448
1178.780	65.342749
1178.943	65.283871
1179.106	65.078186
1179.269	65.218212
1179.432	65.630523
1179.595	65.694928
1179.758	65.780164
1179.921	66.202357
1180.084	66.728136
1180.247	67.123607
1180.410	67.379292
1180.573	67.796629
1180.736	67.972060
1180.899	68.378394
1181.061	68.887808
1181.224	68.795288
1181.387	68.627038
1181.550	68.811723
1181.713	69.176798
1181.875	68.944778
1182.038	68.598078
1182.201	68.699336
1182.363	68.350720
1182.526	68.397389
1182.689	68.231258
1182.851	67.585268
1183.014	67.705999
1183.177	68.209059
1183.339	68.471073
1183.502	68.573475
1183.664	69.016357
1183.827	70.090997
1183.989	70.473108
1184.152	70.446207
1184.314	70.014840
1184.477	69.942031
1184.639	70.341606
1184.801	70.548635
1184.964	70.383813
1185.126	69.918682
1185.288	69.922344
1185.451	69.809785
1185.613	69.020656
1185.775	68.450730
1185.938	68.356032
1186.100	68.745875
1186.262	69.138512
1186.424	69.306770
1186.586	69.219680
1186.749	69.438667
1186.911	69.530437
1187.073	68.995837
1187.235	68.938894
1187.397	68.697534
1187.559	68.815604
1187.721	69.227866
1187.883	69.614542
1188.045	68.971128
1188.207	68.807331
1188.369	68.720877
1188.531	68.063694
1188.693	67.863344
1188.855	67.872363
1189.017	67.759335
1189.179	68.026770
1189.341	68.245295
1189.502	67.833492
1189.664	67.374941
1189.826	67.834255
1189.988	67.715651
1190.150	67.752594
1190.311	68.133478
1190.473	68.682528
1190.635	68.661959
1190.796	68.886680
1190.958	68.902995
1191.120	68.556984
1191.281	68.746397
1191.443	69.403476
1191.604	70.232323
1191.766	70.551710
1191.928	70.785251
1192.089	71.135294
1192.251	71.442810
1192.412	71.928064
1192.574	71.900644
1192.735	71.565170
1192.896	71.743535
1193.058	71.720464
1193.219	71.415829
1193.381	70.295719
1193.542	70.096157
1193.703	69.951076
1193.865	69.733674
1194.026	69.467612
1194.187	69.251129
1194.349	69.176917
1194.510	70.236864
1194.671	70.681328
1194.832	70.928169
1194.993	71.118949
1195.155	71.595746
1195.316	72.029285
1195.477	72.551031
1195.638	72.526164
1195.799	72.337621
1195.960	72.619071
1196.121	72.943462
1196.282	72.488256
1196.443	71.910506
1196.604	71.659811
1196.765	71.600202
1196.926	71.672633
1197.087	71.731415
1197.248	71.684253
1197.409	71.843153
1197.570	72.288318
1197.730	72.764114
1197.891	73.118688
1198.052	73.724903
1198.213	74.684268
1198.374	74.423644
1198.534	74.154747
1198.695	74.340306
1198.856	74.193389
1199.016	74.190976
1199.177	74.042631
1199.338	74.164215
1199.498	73.794455
1199.659	73.643308
1199.820	73.087475
1199.980	72.526696
1200.141	73.183638
1200.301	73.352140
1200.462	73.113486
1200.622	73.059958
1200.783	73.162611
1200.943	73.399668
1201.104	72.827013
1201.264	72.353340
1201.424	71.845445
1201.585	71.693479
1201.745	71.380147
1201.906	70.972844
1202.066	70.692041
1202.226	70.343976
1202.386	70.034722
1202.547	69.674052
1202.707	69.896680
1202.867	70.229263
1203.027	70.756540
1203.188	71.169388
1203.348	71.472270
1203.508	72.018616
1203.668	72.744897
1203.828	73.253521
1203.988	73.869292
1204.148	74.358658
1204.308	74.645970
1204.468	74.844616
1204.628	75.055137
1204.788	74.842847
1204.948	74.687243
1205.108	74.731382
1205.268	74.491053
1205.428	74.246915
1205.588	74.009790
1205.748	73.999402
1205.908	73.925097
1206.068	73.753572
1206.228	73.211822
1206.387	73.135641
1206.547	73.728864
1206.707	74.132951
1206.867	74.005880
1207.026	74.314522
1207.186	74.544419
1207.346	74.905385
1207.505	74.881374
1207.665	74.943635
1207.825	75.241785
1207.984	75.489200
1208.144	75.294330
1208.303	75.054117
1208.463	74.982823
1208.622	74.733582
1208.782	74.390108
1208.941	73.861489
1209.101	73.492324
1209.260	73.206456
1209.420	73.024361
1209.579	72.965114
1209.739	72.911249
1209.898	72.742596
1210.057	72.351790
1210.217	71.985704
1210.376	71.880685
1210.535	71.810700
1210.694	72.313614
1210.854	72.305671
1211.013	72.454639
1211.172	72.720384
1211.331	72.667495
1211.490	72.457973
1211.650	73.042459
1211.809	73.705566
1211.968	74.453555
1212.127	75.042403
1212.286	74.855605
1212.445	74.714517
1212.604	75.198974
1212.763	75.507366
1212.922	75.897156
1213.081	75.711142
1213.240	76.295292
1213.399	76.133537
1213.558	75.603825
1213.717	74.763493
1213.876	74.325312
1214.035	74.834072
1214.194	74.683947
1214.352	74.661450
1214.511	75.143070
1214.670	74.982442
1214.829	75.478231
1214.988	75.571556
1215.146	75.491128
1215.305	75.727747
1215.464	76.088249
1215.622	76.412681
1215.781	76.291442
1215.940	76.419325
1216.098	75.922993
1216.257	75.476210
1216.415	75.349635
1216.574	75.205162
1216.732	74.952467
1216.891	74.624618
1217.049	74.505833
1217.208	74.625969
1217.366	74.329616
1217.525	74.008816
1217.683	74.165911
1217.842	74.568403
1218.000	74.257579
1218.158	74.282390
1218.317	74.357676
1218.475	74.722218
1218.633	75.155887
1218.792	75.054953
1218.950	75.161048
1219.108	75.546217
1219.266	76.258418
1219.425	76.418111
1219.583	76.352360
1219.741	76.456720
1219.899	76.689976
1220.057	76.780905
1220.215	76.338959
1220.373	76.237623
1220.531	76.570039
1220.689	76.219310
1220.847	75.503722
1221.005	74.792076
1221.163	74.439702
1221.322	74.418403
1221.479	74.507014
1221.637	73.893261
1221.795	73.137141
1221.953	73.347950
1222.111	73.388035
1222.269	73.280306
1222.427	74.052347
1222.584	75.009343
1222.742	75.397360
1222.900	75.534432
1223.058	75.223336
1223.216	75.001815
1223.373	75.473234
1223.531	76.096621
1223.689	75.899471
1223.846	75.766864
1224.004	75.761269
1224.162	75.143337
1224.319	74.706852
1224.477	74.515688
1224.634	74.149847
1224.792	73.999902
1224.949	74.029436
1225.107	73.418098
1225.264	73.195057
1225.422	73.022273
1225.579	72.942691
1225.737	73.038462
1225.894	73.001274
1226.052	72.783037
1226.209	72.641505
1226.366	73.050642
1226.523	73.345624
1226.681	73.751295
1226.838	74.565957
1226.995	74.824457
1227.153	75.113335
1227.310	75.261844
1227.467	75.274427
1227.624	75.409676
1227.781	75.506953
1227.938	75.710187
1228.096	75.824196
1228.253	76.151486
1228.410	76.512480
1228.567	76.437279
1228.724	76.172466
1228.881	75.845545
1229.038	75.663859
1229.195	75.482747
1229.352	75.393793
1229.509	75.601699
1229.666	75.961516
1229.823	75.899821
1229.980	75.740846
1230.136	74.947182
1230.293	74.979116
1230.450	75.281274
1230.607	75.197062
1230.764	75.030489
1230.921	75.007838
1231.077	74.933795
1231.234	74.530414
1231.391	74.771516
1231.547	74.917139
1231.704	75.037235
1231.861	75.436905
1232.018	75.341411
1232.174	75.250516
1232.331	75.720789
1232.487	76.000807
1232.644	76.120300
1232.800	76.875161
1232.957	77.432100
1233.113	76.868299
1233.270	76.604295
1233.426	77.079795
1233.583	77.510548
1233.739	77.832993
1233.896	78.500052
1234.052	78.355726
1234.208	78.237175
1234.365	78.302300
1234.521	77.794589
1234.677	78.478379
1234.834	79.509286
1234.990	80.305394
1235.146	80.172771
1235.302	79.961580
1235.459	79.538841
1235.615	78.930324
1235.771	78.995877
1235.927	79.540271
1236.083	79.860463
1236.239	80.525691
1236.396	80.409605
1236.552	79.426820
1236.708	77.978883
1236.864	77.099109
1237.020	77.259005
1237.176	76.996392
1237.332	77.130937
1237.488	77.144142
1237.644	76.818547
1237.799	76.863616
1237.955	76.102602
1238.111	75.206634
1238.267	75.697131
1238.423	76.442119
1238.579	76.654839
1238.734	75.807802
1238.890	76.310289
1239.046	76.237768
1239.202	76.267059
1239.357	76.168694
1239.513	76.393509
1239.669	77.062302
1239.824	77.848782
1239.980	78.168358
1240.136	77.843340
1240.291	78.223028
1240.447	78.658195
1240.603	78.141393
1240.758	77.708718
1240.914	77.836767
1241.069	77.808494
1241.225	76.873998
1241.380	75.638876
1241.535	74.781765
1241.691	74.397711
1241.846	74.935068
1242.002	75.214776
1242.157	75.356593
1242.313	75.634245
1242.468	76.211638
1242.623	76.432957
1242.778	76.924421
1242.934	77.554217
1243.089	78.591083
1243.244	79.399547
1243.399	79.449947
1243.554	79.315820
1243.710	79.249290
1243.865	79.517677
1244.020	79.453499
1244.175	79.595778
1244.330	79.179675
1244.485	78.634687
1244.640	78.050903
1244.795	77.905491
1244.950	77.843491
1245.105	77.845893
1245.260	77.381203
1245.415	77.054578
1245.570	76.793225
1245.725	77.151848
1245.880	76.822868
1246.035	76.980016
1246.190	77.262072
1246.345	78.318352
1246.499	78.454216
1246.654	78.177292
1246.809	77.755450
1246.964	77.976562
1247.118	77.247056
1247.273	76.426170
1247.428	76.094105
1247.583	76.145157
1247.737	75.931911
1247.892	75.296325
1248.047	74.154812
1248.201	74.169872
1248.356	75.027194
1248.510	75.540238
1248.665	75.621886
1248.819	76.150347
1248.974	76.706367
1249.128	77.598774
1249.283	77.831181
1249.437	78.160610
1249.592	79.418529
1249.746	80.722494
1249.900	80.924075
1250.055	79.810100
1250.209	79.413753
1250.363	79.874860
1250.518	80.758722
1250.672	81.095470
1250.826	80.476593
1250.981	80.338828
1251.135	80.523198
1251.289	80.043678
1251.443	79.537085
1251.597	79.362281
1251.751	80.116502
1251.906	80.233765
1252.060	79.808596
1252.214	78.869318
1252.368	78.521343
1252.522	78.382054
1252.676	78.019434
1252.830	78.285411
1252.984	78.588312
1253.138	78.849851
1253.292	78.929166
1253.446	78.537581
1253.600	78.461175
1253.754	79.329734
1253.907	79.634230
1254.061	80.362119
1254.215	80.933203
1254.369	81.413916
1254.523	81.393783
1254.677	81.702708
1254.830	81.876567
1254.984	81.645096
1255.138	81.334828
1255.292	81.362136
1255.445	80.881183
1255.599	81.162124
1255.752	80.428599
1255.906	79.663361
1256.060	79.778939
1256.213	79.281897
1256.367	78.969960
1256.520	78.930658
1256.674	79.280944
1256.827	79.586542
1256.981	79.779123
1257.134	79.982565
1257.288	79.878674
1257.441	79.875401
1257.594	80.481160
1257.748	80.540756
1257.901	80.331286
1258.055	79.537194
1258.208	78.805629
1258.361	78.122171
1258.515	77.915134
1258.668	78.143954
1258.821	78.614700
1258.974	78.835248
1259.127	79.842493
1259.281	80.013153
1259.434	79.673532
1259.587	79.874432
1259.740	80.567613
1259.893	81.482308
1260.046	82.046691
1260.199	82.569777
1260.352	82.939551
1260.505	82.553253
1260.658	82.320219
1260.811	81.669686
1260.964	81.420378
1261.117	82.364943
1261.270	81.671127
1261.423	81.387179
1261.576	80.711254
1261.729	80.071310
1261.882	79.880540
1262.035	79.271011
1262.188	79.682190
1262.340	79.778325
1262.493	79.975669
1262.646	79.897320
1262.798	78.958660
1262.951	79.942297
1263.104	80.458284
1263.257	79.630874
1263.409	79.580741
1263.562	78.323012
1263.714	78.139041
1263.867	76.373683
1264.020	75.852649
1264.172	75.241389
1264.325	74.761076
1264.477	74.206812
1264.630	73.435762
1264.782	72.639785
1264.935	73.902186
1265.087	73.097562
1265.240	73.128334
1265.392	73.269434
1265.544	74.984150
1265.697	75.702978
1265.849	74.820059
1266.001	74.269638
1266.154	74.396652
1266.306	74.969967
1266.458	75.455230
1266.610	74.461131
1266.762	75.518344
1266.915	76.460093
1267.067	76.397537
1267.219	75.096874
1267.371	75.007329
1267.523	77.031025
1267.675	78.040417
1267.828	78.232058
1267.979	78.328834
1268.132	77.996546
1268.284	78.689277
1268.436	79.283459
1268.588	80.042644
1268.740	79.926638
1268.891	79.289464
1269.043	79.045847
1269.195	78.262698
1269.347	78.588409
1269.499	79.371287
1269.651	79.570727
1269.803	79.683144
1269.955	79.144463
1270.106	79.252663
1270.258	78.289432
1270.410	77.758253
1270.562	78.441801
1270.713	78.286229
1270.865	78.335394
1271.017	78.383452
1271.168	77.343723
1271.320	76.904544
1271.471	76.893191
1271.623	77.411836
1271.775	76.946761
1271.926	77.468986
1272.078	78.998213
1272.229	80.162048
1272.381	80.733211
1272.532	81.226383
1272.684	81.498916
1272.835	83.351424
1272.986	83.896939
1273.138	85.071998
1273.289	84.895339
1273.440	84.195662
1273.592	83.397530
1273.743	82.379487
1273.894	82.660854
1274.046	83.617150
1274.197	83.601626
1274.348	83.174045
1274.500	82.055046
1274.651	81.924730
1274.802	81.091457
>>>>>>>>>> END of Data <<<<<<<<<<
