Date	2025年07月03日木曜日 09時55分47秒
Spectrometers	SR401765
ダーク	使用
リファレンス	使用
積分時間[msec]	300
平均回数	1
ｽﾑｰｼﾞﾝｸﾞ	5
Electrical Dark	USE
ピクセル数	3648
計測モード	反射率
保存開始波長[nm]	598.495
保存終了波長[nm]	1274.802
保存ﾋﾟｯﾁ波長[nm]	全波長

>>>>>>>>>> Data Start <<<<<<<<<<<<
598.495	-296.201048
598.713	-296.201048
598.931	-296.201048
599.148	-296.201048
599.366	0.000000
599.584	0.000000
599.802	424.016910
600.020	63.366457
600.238	11.197332
600.455	138.481176
600.673	60.319595
600.891	46.596905
601.109	48.507811
601.326	49.073208
601.544	48.377739
601.762	48.509191
601.979	49.057453
602.197	49.230888
602.415	49.520907
602.632	49.704248
602.850	49.722418
603.067	49.806092
603.285	49.964246
603.502	50.055998
603.720	50.022290
603.938	50.321499
604.155	50.516385
604.372	50.504364
604.590	50.607665
604.807	50.791333
605.025	50.905917
605.242	51.139862
605.460	51.292307
605.677	51.383517
605.894	51.596587
606.112	51.993060
606.329	52.307885
606.546	52.719676
606.764	53.067123
606.981	53.238290
607.198	53.289796
607.415	53.409720
607.633	53.574232
607.850	53.901610
608.067	54.259702
608.284	54.512153
608.501	54.616290
608.718	54.705822
608.935	54.669539
609.153	54.862993
609.370	54.971141
609.587	55.104400
609.804	55.634768
610.021	55.860517
610.238	55.842527
610.455	55.703685
610.672	55.654172
610.889	55.760646
611.106	55.780099
611.323	55.826370
611.540	55.885345
611.756	56.070821
611.973	56.267469
612.190	56.127753
612.407	56.184040
612.624	56.468249
612.841	56.820260
613.057	57.176965
613.274	57.575643
613.491	58.111600
613.708	58.893964
613.925	59.410765
614.141	59.600790
614.358	59.815825
614.575	60.032282
614.791	60.156991
615.008	60.156847
615.225	60.305476
615.441	60.235850
615.658	60.049700
615.874	59.871115
616.091	59.584602
616.307	59.566050
616.524	59.827210
616.740	59.902802
616.957	60.147557
617.173	60.525286
617.390	60.801405
617.606	60.954810
617.823	61.408254
618.039	61.906427
618.256	62.356830
618.472	62.590034
618.688	62.668955
618.905	62.739549
619.121	63.000447
619.337	63.198069
619.554	63.167391
619.770	63.244815
619.986	63.302799
620.202	63.243303
620.419	63.256490
620.635	63.232209
620.851	63.167030
621.067	63.133488
621.283	63.233184
621.499	63.201238
621.716	62.994218
621.932	63.031289
622.148	63.176608
622.364	63.261251
622.580	63.275905
622.796	63.199307
623.012	63.363216
623.228	63.804958
623.444	64.118689
623.660	64.234466
623.876	64.460721
624.092	64.763276
624.308	65.174571
624.524	65.392616
624.740	65.649228
624.955	66.004756
625.171	66.138247
625.387	65.756884
625.603	65.561965
625.819	65.758417
626.034	65.986045
626.250	66.073783
626.466	66.210465
626.682	66.200553
626.897	66.139912
627.113	66.134372
627.329	66.093910
627.544	66.405029
627.760	67.033609
627.976	67.291803
628.191	67.246523
628.407	67.518520
628.623	67.903212
628.838	68.293286
629.054	68.656790
629.269	69.050530
629.485	69.539519
629.700	70.174076
629.916	70.777864
630.131	71.210925
630.347	71.578525
630.562	71.973183
630.777	71.987065
630.993	71.849258
631.208	71.670830
631.424	71.506937
631.639	71.580482
631.854	71.570473
632.070	71.325669
632.285	71.065883
632.500	70.920836
632.715	70.712718
632.931	70.629859
633.146	70.701152
633.361	70.843406
633.576	71.009948
633.791	71.167144
634.007	71.173338
634.222	71.292971
634.437	71.530430
634.652	71.613889
634.867	71.687300
635.082	72.034204
635.297	72.234628
635.512	72.410850
635.727	72.682736
635.942	72.951755
636.157	73.164318
636.372	73.234522
636.587	73.005993
636.802	72.708820
637.017	72.612881
637.232	72.686356
637.447	72.976545
637.662	73.357795
637.876	73.374565
638.091	73.061202
638.306	72.759470
638.521	72.491354
638.736	72.368329
638.951	72.384746
639.165	72.356503
639.380	72.350272
639.595	72.382501
639.809	72.161942
640.024	71.984961
640.239	72.157913
640.453	72.545813
640.668	72.884523
640.883	73.092044
641.097	73.255152
641.312	73.432837
641.526	73.662237
641.741	73.710472
641.955	73.548409
642.170	73.534216
642.384	73.566047
642.599	73.455173
642.813	73.587198
643.028	73.973781
643.242	74.452738
643.457	74.931365
643.671	75.108315
643.885	75.050258
644.100	75.136470
644.314	75.380520
644.528	75.539600
644.743	75.601045
644.957	75.874750
645.171	75.995334
645.386	75.555751
645.600	75.346510
645.814	75.299297
646.028	75.584093
646.242	75.877004
646.457	75.736745
646.671	75.459654
646.885	75.410749
647.099	75.508886
647.313	75.567347
647.527	75.492367
647.741	75.726440
647.955	75.867816
648.169	76.019640
648.383	76.154260
648.597	76.377565
648.811	76.770148
649.025	77.149578
649.239	77.504686
649.453	77.608130
649.667	77.482228
649.881	77.683085
650.095	77.749114
650.309	77.499193
650.523	77.333202
650.737	77.347072
650.950	77.545906
651.164	77.955451
651.378	78.485070
651.592	78.509076
651.805	78.443661
652.019	78.576949
652.233	78.614328
652.447	78.548593
652.660	78.590677
652.874	78.658082
653.088	78.623978
653.301	78.499370
653.515	78.345045
653.728	77.985046
653.942	77.793792
654.156	77.662763
654.369	77.427142
654.583	77.164900
654.796	77.329317
655.010	77.611058
655.223	77.675768
655.437	77.670676
655.650	77.610984
655.863	77.372382
656.077	77.305305
656.290	77.472712
656.504	77.746682
656.717	77.943259
656.930	78.070051
657.144	78.108088
657.357	78.266066
657.570	78.571291
657.783	78.843513
657.997	79.006883
658.210	79.131335
658.423	79.143855
658.636	79.026426
658.849	78.805141
659.063	78.756770
659.276	79.117686
659.489	79.433171
659.702	79.542754
659.915	79.369230
660.128	78.993811
660.341	78.928682
660.554	79.092160
660.767	79.486857
660.980	79.978183
661.193	80.226491
661.406	80.402268
661.619	80.384666
661.832	80.295576
662.045	80.255022
662.258	80.353233
662.471	80.616491
662.684	80.697974
662.897	80.596953
663.110	80.187006
663.322	79.692204
663.535	79.472733
663.748	79.318283
663.961	79.200152
664.174	79.077596
664.386	78.956764
664.599	79.081338
664.812	79.323316
665.024	79.494918
665.237	79.710117
665.450	79.937720
665.662	80.303786
665.875	80.865434
666.088	81.344440
666.300	81.398197
666.513	81.412727
666.725	81.664203
666.938	81.650755
667.150	81.345636
667.363	81.335978
667.575	81.512236
667.788	81.716811
668.000	81.840821
668.213	81.878118
668.425	81.897745
668.638	81.925938
668.850	82.000677
669.062	82.081493
669.275	82.403714
669.487	82.804678
669.699	83.023015
669.912	83.030231
670.124	82.974260
670.336	82.822751
670.548	82.706607
670.761	82.665751
670.973	82.791775
671.185	82.939392
671.397	82.703555
671.609	82.336786
671.822	82.034360
672.034	81.783642
672.246	81.707343
672.458	81.819110
672.670	81.995611
672.882	82.014840
673.094	81.873367
673.306	81.689490
673.518	81.621930
673.730	81.631583
673.942	81.502285
674.154	81.313690
674.366	81.330019
674.578	81.517287
674.790	81.618422
675.002	81.791348
675.214	81.903593
675.425	81.703883
675.637	81.393133
675.849	80.927561
676.061	80.583318
676.273	80.478529
676.484	80.614846
676.696	80.788385
676.908	81.090473
677.120	81.448879
677.331	81.375928
677.543	81.087888
677.755	81.211737
677.966	81.493265
678.178	81.758714
678.389	82.043324
678.601	82.279981
678.813	82.567306
679.024	82.550114
679.236	82.147209
679.447	81.767126
679.659	81.384697
679.870	81.203555
680.082	81.044760
680.293	80.689939
680.505	80.349579
680.716	80.273720
680.927	80.086817
681.139	79.641531
681.350	79.429821
681.562	79.376642
681.773	79.241062
681.984	79.391300
682.196	79.695383
682.407	80.067700
682.618	80.487460
682.829	80.814354
683.041	80.983505
683.252	81.315496
683.463	81.794004
683.674	81.956637
683.885	81.944504
684.097	81.820594
684.308	81.643427
684.519	81.279891
684.730	80.845571
684.941	80.441399
685.152	80.107721
685.363	79.742273
685.574	79.292287
685.785	78.895451
685.996	78.698130
686.207	78.571253
686.418	78.619458
686.629	78.747846
686.840	79.133311
687.051	79.565529
687.262	79.974891
687.473	80.335348
687.684	80.642576
687.894	80.953504
688.105	81.279971
688.316	81.518004
688.527	81.618360
688.738	81.560991
688.948	81.331265
689.159	80.764234
689.370	80.044173
689.580	79.699917
689.791	79.616899
690.002	79.497647
690.212	79.403864
690.423	79.244127
690.634	79.168365
690.844	79.124631
691.055	79.169228
691.266	79.417269
691.476	79.918257
691.687	80.582250
691.897	81.015328
692.108	81.151818
692.318	81.279805
692.529	81.279652
692.739	81.092404
692.949	80.993469
693.160	81.015444
693.370	81.220316
693.581	81.599924
693.791	81.896778
694.001	81.935519
694.212	81.881885
694.422	81.818038
694.632	81.695903
694.843	81.621565
695.053	81.854802
695.263	81.967567
695.473	81.949235
695.683	81.811897
695.894	81.413014
696.104	81.069431
696.314	80.961613
696.524	80.989176
696.734	81.173986
696.944	81.495614
697.154	81.650203
697.365	81.710088
697.575	81.531329
697.785	81.348635
697.995	81.091326
698.205	80.792092
698.415	80.413304
698.625	80.026818
698.834	79.638646
699.044	79.231105
699.254	78.896503
699.464	78.746817
699.674	78.371589
699.884	78.128957
700.094	77.903301
700.304	77.617210
700.513	77.476205
700.723	77.510991
700.933	77.740165
701.143	78.044380
701.353	78.241499
701.562	78.268165
701.772	78.323609
701.982	78.766551
702.191	79.108367
702.401	79.466522
702.611	79.876819
702.820	80.024731
703.030	80.164049
703.239	80.131094
703.449	79.903386
703.659	79.965792
703.868	80.172920
704.078	80.117359
704.287	79.664237
704.497	79.350456
704.706	79.110718
704.916	78.718171
705.125	78.537324
705.334	78.339522
705.544	78.172665
705.753	78.115955
705.962	77.812212
706.172	77.310665
706.381	77.141603
706.590	77.247859
706.800	77.277385
707.009	77.288700
707.218	77.732367
707.428	78.092509
707.637	78.211015
707.846	78.322268
708.055	78.721096
708.264	79.313342
708.474	79.829959
708.683	80.071900
708.892	80.066200
709.101	80.167919
709.310	80.375045
709.519	80.223898
709.728	79.918052
709.937	79.746669
710.146	79.511714
710.355	78.995657
710.564	78.304689
710.773	77.722783
710.982	77.302289
711.191	76.900675
711.400	76.645069
711.609	76.504892
711.818	76.415415
712.027	76.376358
712.235	76.409591
712.444	76.461945
712.653	76.341511
712.862	76.170474
713.071	76.196625
713.279	76.399921
713.488	76.783042
713.697	76.919439
713.906	76.680398
714.114	76.541121
714.323	76.542341
714.532	76.354445
714.740	76.065757
714.949	76.052982
715.157	76.278415
715.366	76.281890
715.575	76.096274
715.783	75.806250
715.992	75.442566
716.200	75.204180
716.409	74.957126
716.617	74.663629
716.826	74.422479
717.034	74.382942
717.242	74.396327
717.451	74.259732
717.659	74.102387
717.868	74.170197
718.076	74.559691
718.284	75.069658
718.493	75.442594
718.701	75.605033
718.909	75.832805
719.118	76.103843
719.326	76.209819
719.534	76.129358
719.742	76.048131
719.951	76.110682
720.159	75.905037
720.367	75.315788
720.575	74.956214
720.783	74.868537
720.991	74.947636
721.199	74.789528
721.408	74.300835
721.616	73.730145
721.824	73.405091
722.032	73.326098
722.240	73.220318
722.448	73.155374
722.656	73.351657
722.864	73.355089
723.072	73.050415
723.280	72.662114
723.487	72.542689
723.695	72.858566
723.903	73.430446
724.111	73.783854
724.319	73.841890
724.527	73.998382
724.735	74.399002
724.942	74.507091
725.150	74.352674
725.358	74.240804
725.566	74.264530
725.773	74.379766
725.981	74.335148
726.189	74.141727
726.396	73.904835
726.604	73.574131
726.812	73.117209
727.019	72.509675
727.227	72.029344
727.435	71.985144
727.642	72.155118
727.850	72.033065
728.057	71.507081
728.265	70.772443
728.472	70.067797
728.680	69.394082
728.887	68.981143
729.095	68.764070
729.302	68.283247
729.509	67.765954
729.717	67.395510
729.924	67.044733
730.132	67.020419
730.339	67.117950
730.546	67.337712
730.753	67.603260
730.961	67.999503
731.168	68.276537
731.375	68.270411
731.583	68.254401
731.790	68.210290
731.997	68.053067
732.204	67.922089
732.411	67.682593
732.618	67.528543
732.826	67.549735
733.033	67.541495
733.240	67.420605
733.447	67.257600
733.654	67.238079
733.861	67.450178
734.068	67.674566
734.275	67.870754
734.482	67.850060
734.689	67.679232
734.896	67.433807
735.103	67.252397
735.310	67.180558
735.517	67.022030
735.724	66.804473
735.931	66.464585
736.137	66.089431
736.344	65.931621
736.551	65.597893
736.758	65.348846
736.965	65.115912
737.171	64.666152
737.378	64.198586
737.585	63.751977
737.792	63.422304
737.998	63.260891
738.205	63.263356
738.412	63.294015
738.618	63.083646
738.825	62.823124
739.032	62.765534
739.238	62.829708
739.445	63.005758
739.651	62.887217
739.858	62.736104
740.064	62.611736
740.271	62.529391
740.477	62.298414
740.684	61.855400
740.890	61.435964
741.097	61.074788
741.303	60.543906
741.510	60.124986
741.716	59.901272
741.922	59.875463
742.129	59.911486
742.335	59.881635
742.541	59.574490
742.748	59.282472
742.954	59.151268
743.160	59.056471
743.366	58.978489
743.573	58.646609
743.779	58.102525
743.985	57.751055
744.191	57.522301
744.397	57.104904
744.604	56.633837
744.810	56.331431
745.016	55.980082
745.222	55.655995
745.428	55.122081
745.634	54.476881
745.840	54.100523
746.046	53.810156
746.252	53.376622
746.458	52.940129
746.664	52.717424
746.870	52.619432
747.076	52.479091
747.282	52.346117
747.488	52.132269
747.694	52.089407
747.900	52.179634
748.105	52.277411
748.311	52.343850
748.517	52.303270
748.723	52.014213
748.929	51.479337
749.134	51.045654
749.340	50.777410
749.546	50.561571
749.752	50.320005
749.957	50.091983
750.163	49.782500
750.369	49.390795
750.574	49.064452
750.780	48.836342
750.985	48.662410
751.191	48.458024
751.397	48.180221
751.602	47.906626
751.808	47.564942
752.013	47.226715
752.219	46.855983
752.424	46.461374
752.630	46.208795
752.835	45.783568
753.041	45.114624
753.246	44.640896
753.451	44.357220
753.657	43.869090
753.862	43.197010
754.067	42.457521
754.273	41.754380
754.478	41.106829
754.683	40.633114
754.889	40.191144
755.094	40.087325
755.299	40.018217
755.504	39.797255
755.710	39.517789
755.915	39.231320
756.120	38.832211
756.325	38.520925
756.530	38.181620
756.735	37.860293
756.940	37.557795
757.146	37.110888
757.351	36.531229
757.556	36.191867
757.761	35.700995
757.966	35.073018
758.171	34.592937
758.376	34.347309
758.581	34.067385
758.786	33.840639
758.990	33.557663
759.195	33.169638
759.400	32.740585
759.605	32.300604
759.810	31.755044
760.015	31.445105
760.220	31.324523
760.424	31.085258
760.629	30.747355
760.834	30.578454
761.039	30.506991
761.244	30.418739
761.448	30.135932
761.653	29.937983
761.858	29.732847
762.062	29.592993
762.267	29.439587
762.472	29.040330
762.676	28.656824
762.881	28.187783
763.085	27.607506
763.290	26.984223
763.494	26.338072
763.699	25.913472
763.903	25.460150
764.108	25.072178
764.312	24.683423
764.517	24.305240
764.721	24.035160
764.926	23.829007
765.130	23.615792
765.335	23.286706
765.539	22.993463
765.743	22.806195
765.948	22.546865
766.152	22.263934
766.356	21.892030
766.560	21.479706
766.765	20.996941
766.969	20.530746
767.173	20.088454
767.377	19.840675
767.582	19.840536
767.786	19.721332
767.990	19.508241
768.194	19.296672
768.398	19.051809
768.602	18.759888
768.806	18.474954
769.010	18.283232
769.215	18.082837
769.419	17.776634
769.623	17.436465
769.827	17.009578
770.031	16.682155
770.234	16.278367
770.438	15.947143
770.642	15.737198
770.846	15.614208
771.050	15.471766
771.254	15.295197
771.458	15.149700
771.662	15.002166
771.866	14.830151
772.069	14.716813
772.273	14.466116
772.477	14.293630
772.681	14.034375
772.885	13.779283
773.088	13.465128
773.292	13.170863
773.496	12.981210
773.699	12.770464
773.903	12.598979
774.107	12.411720
774.310	12.134528
774.514	11.984705
774.717	11.925449
774.921	11.897929
775.124	11.779989
775.328	11.648453
775.531	11.623708
775.735	11.465984
775.938	11.277411
776.142	11.158399
776.345	10.990820
776.549	10.876460
776.752	10.755568
776.956	10.522619
777.159	10.279142
777.362	10.194527
777.566	10.090540
777.769	9.995839
777.972	9.991172
778.176	10.063325
778.379	10.111543
778.582	10.237018
778.785	10.225464
778.989	10.357734
779.192	10.534546
779.395	10.676482
779.598	10.761208
779.801	10.905371
780.004	10.876641
780.207	10.879011
780.411	10.939257
780.614	10.981487
780.817	10.947466
781.020	10.941606
781.223	10.900723
781.426	10.929506
781.629	10.981927
781.832	11.061139
782.035	11.177265
782.238	11.368786
782.440	11.485428
782.643	11.439524
782.846	11.538421
783.049	11.825731
783.252	12.092362
783.455	12.273674
783.658	12.415507
783.860	12.538147
784.063	12.686633
784.266	12.783094
784.469	12.920028
784.671	13.061451
784.874	13.295132
785.077	13.363758
785.279	13.336098
785.482	13.553538
785.685	13.773690
785.887	13.896694
786.090	14.106129
786.293	14.381748
786.495	14.658226
786.698	14.997628
786.900	15.218682
787.103	15.394564
787.305	15.641344
787.508	15.964608
787.710	16.139708
787.913	16.338436
788.115	16.613169
788.317	16.831506
788.520	16.837452
788.722	16.866380
788.924	16.905823
789.127	17.111270
789.329	17.399316
789.531	17.628537
789.734	17.754602
789.936	17.964158
790.138	18.154953
790.340	18.421225
790.543	18.782238
790.745	19.163271
790.947	19.484950
791.149	19.792917
791.351	20.121535
791.553	20.488813
791.756	20.841641
791.958	21.216264
792.160	21.598569
792.362	21.862136
792.564	22.292750
792.766	22.711906
792.968	23.188723
793.170	23.690851
793.372	23.949108
793.574	24.079872
793.776	24.109903
793.978	24.248497
794.180	24.323176
794.381	24.351429
794.583	24.583779
794.785	24.699503
794.987	24.676640
795.189	24.695589
795.391	24.768626
795.592	25.073629
795.794	25.532062
795.996	26.024475
796.198	26.438252
796.399	26.927408
796.601	27.400198
796.803	27.641851
797.004	27.770673
797.206	28.069603
797.407	28.457710
797.609	28.822773
797.811	29.108527
798.012	29.290521
798.214	29.383249
798.415	29.581827
798.617	29.679195
798.818	29.762887
799.020	30.030313
799.221	30.350440
799.423	30.690671
799.624	30.981785
799.826	31.386633
800.027	31.801260
800.228	32.011778
800.430	32.251944
800.631	32.503242
800.832	32.849037
801.034	33.059887
801.235	33.169980
801.436	33.315129
801.637	33.288687
801.839	33.331780
802.040	33.384538
802.241	33.415575
802.442	33.583445
802.643	33.826892
802.844	33.961737
803.046	34.057662
803.247	34.320066
803.448	34.560531
803.649	34.735916
803.850	35.159316
804.051	35.557658
804.252	35.732030
804.453	35.812793
804.654	36.038494
804.855	36.372216
805.056	36.832081
805.257	37.213979
805.458	37.528696
805.659	38.023726
805.859	38.672216
806.060	39.263518
806.261	39.822378
806.462	40.498444
806.663	41.183414
806.864	41.761121
807.064	42.216134
807.265	42.492454
807.466	42.831044
807.667	43.227313
807.867	43.537466
808.068	43.814101
808.269	43.910528
808.469	44.013011
808.670	44.171329
808.870	44.255449
809.071	44.247557
809.272	44.475292
809.472	44.958209
809.673	45.584903
809.873	46.111746
810.074	46.599498
810.274	46.980542
810.475	47.526786
810.675	47.845765
810.876	47.851563
811.076	48.131443
811.276	48.484131
811.477	48.416724
811.677	48.059093
811.878	47.584614
812.078	47.474401
812.278	47.498259
812.479	47.488245
812.679	47.415065
812.879	47.401437
813.079	47.709358
813.280	47.749732
813.480	47.663597
813.680	47.815681
813.880	48.089538
814.080	48.371662
814.280	48.405444
814.480	48.304796
814.681	48.177036
814.881	47.972784
815.081	47.888188
815.281	47.715958
815.481	47.721197
815.681	47.994438
815.881	48.150908
816.081	48.171353
816.281	48.330684
816.481	48.743947
816.681	49.176454
816.880	49.689439
817.080	50.141625
817.280	50.460926
817.480	50.816469
817.680	51.297349
817.880	51.682182
818.080	52.010642
818.279	52.295629
818.479	52.515185
818.679	52.605216
818.879	52.719668
819.078	52.779357
819.278	52.892769
819.478	53.201608
819.677	53.598657
819.877	53.774390
820.077	53.825968
820.276	54.053924
820.476	54.643364
820.675	55.209617
820.875	55.373053
821.074	55.390909
821.274	55.735736
821.473	56.204151
821.673	56.467742
821.872	56.487362
822.072	56.477112
822.271	56.700165
822.471	56.904457
822.670	56.633207
822.869	56.233176
823.069	56.068997
823.268	55.996166
823.467	55.759171
823.667	55.605978
823.866	55.539238
824.065	55.775482
824.265	56.141670
824.464	56.493153
824.663	56.832082
824.862	57.388464
825.061	57.903599
825.261	58.465653
825.460	59.074629
825.659	59.486895
825.858	59.688161
826.057	59.858330
826.256	59.991705
826.455	60.098153
826.654	60.027788
826.853	60.017893
827.052	60.145992
827.251	60.467000
827.450	60.802649
827.649	61.135560
827.848	61.342243
828.047	61.517962
828.246	61.641362
828.445	61.775037
828.644	61.916043
828.843	61.962543
829.041	61.880255
829.240	61.803188
829.439	61.584363
829.638	61.426946
829.836	61.309217
830.035	61.385738
830.234	61.535958
830.433	61.581708
830.631	61.508474
830.830	61.398036
831.029	61.487809
831.227	61.517848
831.426	61.358318
831.624	61.217911
831.823	60.961448
832.022	60.588701
832.220	60.184862
832.419	59.852514
832.617	59.875411
832.816	59.991622
833.014	60.074059
833.213	59.974275
833.411	60.024399
833.609	60.130776
833.808	60.277503
834.006	60.497049
834.205	60.843166
834.403	61.238974
834.601	61.550942
834.800	61.607677
834.998	61.578463
835.196	61.738692
835.394	62.179785
835.593	62.659715
835.791	63.257434
835.989	63.786620
836.187	64.303452
836.385	64.692911
836.584	64.904305
836.782	65.212390
836.980	65.741309
837.178	66.214021
837.376	66.608758
837.574	66.769566
837.772	67.027686
837.970	67.175010
838.168	67.271433
838.366	67.358016
838.564	67.318568
838.762	67.208164
838.960	66.922617
839.158	66.549620
839.356	66.288689
839.554	65.934970
839.752	65.734209
839.949	65.402345
840.147	65.274089
840.345	65.394093
840.543	65.714060
840.741	66.211502
840.938	66.705783
841.136	67.248871
841.334	67.795961
841.532	68.267981
841.729	68.905448
841.927	69.496385
842.125	69.777568
842.322	69.745807
842.520	69.493847
842.718	68.963562
842.915	68.439370
843.113	67.986425
843.310	67.656533
843.508	67.391315
843.705	67.287148
843.903	67.166080
844.100	66.973654
844.298	67.026143
844.495	67.311294
844.693	67.589633
844.890	67.741310
845.087	67.809688
845.285	67.893005
845.482	67.737760
845.679	67.737101
845.877	67.917127
846.074	68.035458
846.271	68.148482
846.469	68.162188
846.666	67.985371
846.863	67.599539
847.060	67.285912
847.257	67.253722
847.455	67.507417
847.652	68.041988
847.849	68.316805
848.046	68.148550
848.243	68.093777
848.440	67.977384
848.637	67.820326
848.834	67.705993
849.031	67.747341
849.228	68.035463
849.425	68.251455
849.622	68.421927
849.819	68.565757
850.016	68.569445
850.213	68.511064
850.410	68.249378
850.607	68.084936
850.804	68.047285
851.001	67.970310
851.198	68.341249
851.394	68.766018
851.591	69.156599
851.788	69.408197
851.985	69.576160
852.181	69.882809
852.378	70.378767
852.575	71.001560
852.772	71.674954
852.968	72.132875
853.165	72.557445
853.362	72.726164
853.558	72.843958
853.755	72.930673
853.951	72.815801
854.148	72.908839
854.345	73.203207
854.541	73.524945
854.738	73.432550
854.934	73.257371
855.131	73.390463
855.327	73.684391
855.523	74.050186
855.720	74.244410
855.916	74.379135
856.113	74.516508
856.309	74.361130
856.505	74.287977
856.702	74.215887
856.898	74.352527
857.094	74.397509
857.291	74.426114
857.487	74.367102
857.683	73.852533
857.879	73.371616
858.076	73.124936
858.272	73.283149
858.468	73.530567
858.664	73.733412
858.860	73.643384
859.056	73.575449
859.253	73.576091
859.449	73.234533
859.645	73.001305
859.841	73.462118
860.037	74.248768
860.233	74.951172
860.429	75.415949
860.625	75.784765
860.821	75.753394
861.017	75.612157
861.213	75.510887
861.409	75.686686
861.604	76.185186
861.800	76.595809
861.996	76.553544
862.192	76.121046
862.388	75.449353
862.584	74.790919
862.779	74.420503
862.975	74.100028
863.171	74.010797
863.367	73.878392
863.562	73.473116
863.758	73.030840
863.954	72.667187
864.149	72.597696
864.345	72.594685
864.541	72.648870
864.736	72.751424
864.932	72.572253
865.127	72.072532
865.323	71.372321
865.518	70.953370
865.714	71.053310
865.910	71.230558
866.105	71.338745
866.300	71.500579
866.496	71.184801
866.691	70.978097
866.887	70.994644
867.082	70.724054
867.277	71.066789
867.473	71.855064
867.668	72.589758
867.864	72.581648
868.059	72.332535
868.254	72.181601
868.449	71.904898
868.645	72.013915
868.840	71.855262
869.035	71.630897
869.230	71.729215
869.425	71.706562
869.621	71.858850
869.816	71.948296
870.011	72.268961
870.206	72.720608
870.401	73.136304
870.596	73.503105
870.791	73.801856
870.986	74.221904
871.181	74.193678
871.376	74.178256
871.571	74.134222
871.766	73.489648
871.961	72.578798
872.156	72.006806
872.351	71.526645
872.546	71.005677
872.741	70.616289
872.936	70.527772
873.130	70.416994
873.325	70.696150
873.520	71.078405
873.715	71.788088
873.910	72.966683
874.104	74.030862
874.299	74.570649
874.494	74.940813
874.688	75.349553
874.883	75.578802
875.078	75.605183
875.272	75.548637
875.467	74.859267
875.662	73.984546
875.856	73.003030
876.051	71.956432
876.245	71.175569
876.440	70.824724
876.634	70.794761
876.829	70.543440
877.023	70.350102
877.218	70.298205
877.412	70.328727
877.607	70.827597
877.801	71.432895
877.995	71.786746
878.190	72.161397
878.384	72.699950
878.578	72.981837
878.773	73.050331
878.967	73.425132
879.161	73.954451
879.356	74.118532
879.550	74.873787
879.744	75.974963
879.938	76.853860
880.133	77.863366
880.327	78.398789
880.521	78.637544
880.715	78.736718
880.909	78.875615
881.103	78.808747
881.297	78.398114
881.491	78.161601
881.685	77.406203
881.880	76.537737
882.073	76.047455
882.267	75.840628
882.461	76.068867
882.655	76.351478
882.849	76.758161
883.043	76.972494
883.237	77.197902
883.431	77.483190
883.625	78.062288
883.819	78.781528
884.013	79.325587
884.206	79.673401
884.400	79.641932
884.594	79.442397
884.788	79.498471
884.982	79.223151
885.175	78.940759
885.369	78.704438
885.563	78.771736
885.756	78.580052
885.950	78.164321
886.144	77.883146
886.337	77.450578
886.531	77.026052
886.724	76.978964
886.918	76.769870
887.112	76.899044
887.305	77.014930
887.499	77.065023
887.692	76.966456
887.885	76.952860
888.079	76.892392
888.272	76.747828
888.466	76.986202
888.659	77.805980
888.853	78.863533
889.046	79.768460
889.239	80.110329
889.433	80.213489
889.626	80.626048
889.819	80.825874
890.013	80.593934
890.206	80.488582
890.399	80.555896
890.592	80.689427
890.785	80.351774
890.979	79.306379
891.172	78.162518
891.365	77.460359
891.558	76.894567
891.751	76.624846
891.944	76.531662
892.137	76.763183
892.330	77.184010
892.524	77.428602
892.717	77.297767
892.910	76.955725
893.103	76.802369
893.296	77.007717
893.488	77.603118
893.681	78.394702
893.874	78.795161
894.067	79.324978
894.260	79.655066
894.453	79.512904
894.646	79.669080
894.839	80.474673
895.031	81.542666
895.224	82.385752
895.417	83.345402
895.610	83.922682
895.802	84.496524
895.995	84.825655
896.188	84.597688
896.381	84.646387
896.573	84.710543
896.766	84.261012
896.958	83.359588
897.151	82.529535
897.344	81.996484
897.536	81.620787
897.729	81.505314
897.921	80.881515
898.114	80.245242
898.306	79.940593
898.499	79.623029
898.691	79.580732
898.884	79.809037
899.076	79.969182
899.269	79.977536
899.461	79.666795
899.653	79.033574
899.846	78.242783
900.038	78.025909
900.230	78.364553
900.423	78.758744
900.615	78.755479
900.807	78.613201
901.000	78.503020
901.192	78.182230
901.384	77.596271
901.576	77.433474
901.768	77.466259
901.961	77.677518
902.153	77.944592
902.345	77.980265
902.537	77.977188
902.729	78.315724
902.921	78.893141
903.113	79.061192
903.305	79.335012
903.497	80.049821
903.689	80.615174
903.881	80.886552
904.073	80.861562
904.265	80.706212
904.457	80.560826
904.649	80.157591
904.841	79.829754
905.033	79.891980
905.224	80.051043
905.416	80.461799
905.608	80.826074
905.800	81.022036
905.992	81.223047
906.183	81.807838
906.375	82.333354
906.567	82.417691
906.759	82.544423
906.950	82.391739
907.142	81.890935
907.334	81.996193
907.525	82.180860
907.717	82.128273
907.909	82.037546
908.100	82.001245
908.292	81.833753
908.483	81.390526
908.675	81.183671
908.866	81.236765
909.058	81.529516
909.249	81.762356
909.441	81.198596
909.632	80.008809
909.824	79.211225
910.015	79.002687
910.206	79.235524
910.398	79.077893
910.589	79.124488
910.780	79.361749
910.972	79.435825
911.163	79.394046
911.354	79.513722
911.546	80.050589
911.737	80.904086
911.928	81.719845
912.119	81.978223
912.310	81.674009
912.502	81.434497
912.693	80.943599
912.884	80.621019
913.075	80.453716
913.266	80.453794
913.457	80.621627
913.648	80.987828
913.839	81.407177
914.030	81.749881
914.221	81.922168
914.412	82.364035
914.603	83.376772
914.794	84.757650
914.985	85.585245
915.176	86.441039
915.367	86.699068
915.558	86.389099
915.749	85.674199
915.940	84.918923
916.130	84.001693
916.321	83.723891
916.512	83.039771
916.703	82.105547
916.893	80.889626
917.084	79.691536
917.275	78.278810
917.466	77.348139
917.656	76.770786
917.847	76.247899
918.038	75.649428
918.228	75.120569
918.419	74.716112
918.609	74.744772
918.800	74.904479
918.990	75.585743
919.181	76.670193
919.372	77.634608
919.562	78.373111
919.753	78.986518
919.943	79.975012
920.133	80.793283
920.324	81.622354
920.514	81.855299
920.705	81.780356
920.895	81.699045
921.085	81.297322
921.276	81.036427
921.466	81.013944
921.656	80.995078
921.847	80.702142
922.037	80.351471
922.227	80.335526
922.417	80.275163
922.608	80.177217
922.798	80.037631
922.988	79.798952
923.178	80.051689
923.368	79.259539
923.558	78.844449
923.748	79.213817
923.939	79.922189
924.129	79.984453
924.319	79.528996
924.509	79.215710
924.699	78.986210
924.889	78.579034
925.079	78.195733
925.269	77.570803
925.459	77.698167
925.648	77.585384
925.838	77.008639
926.028	76.417643
926.218	76.337178
926.408	76.730169
926.598	77.092709
926.788	77.819824
926.977	78.663957
927.167	79.153154
927.357	79.627188
927.547	80.342130
927.736	81.010884
927.926	81.587722
928.116	81.861016
928.305	81.906676
928.495	81.779520
928.685	81.648181
928.874	81.443372
929.064	81.455043
929.253	81.738681
929.443	81.900891
929.633	81.916964
929.822	81.847096
930.012	81.774349
930.201	81.741040
930.391	81.793816
930.580	81.717286
930.769	82.108265
930.959	82.476213
931.148	82.955325
931.338	83.108861
931.527	83.086938
931.716	82.531891
931.906	81.989101
932.095	81.786486
932.284	81.651426
932.474	81.389113
932.663	81.237118
932.852	80.388238
933.041	79.660636
933.230	78.944600
933.420	78.877248
933.609	78.974715
933.798	79.300056
933.987	79.587552
934.176	80.130428
934.365	81.275651
934.554	82.308278
934.743	83.222899
934.932	84.003756
935.121	83.716115
935.310	83.598496
935.499	83.325620
935.688	82.995850
935.877	82.468737
936.066	82.117484
936.255	81.506887
936.444	80.570144
936.633	79.717191
936.822	79.261902
937.010	79.155120
937.199	79.668234
937.388	79.827579
937.577	79.821693
937.766	80.090297
937.954	80.632864
938.143	81.371254
938.332	82.072794
938.520	82.712625
938.709	83.432189
938.898	83.477532
939.086	83.382136
939.275	83.429012
939.464	83.658111
939.652	83.722225
939.841	83.499363
940.029	83.626309
940.218	83.481090
940.406	83.106395
940.595	82.465576
940.783	81.851410
940.972	82.066281
941.160	82.618415
941.349	82.862416
941.537	83.138569
941.725	83.618953
941.914	84.515528
942.102	84.863012
942.290	85.498197
942.479	86.068425
942.667	86.621546
942.855	86.927129
943.043	86.804577
943.232	86.115904
943.420	85.561160
943.608	85.184506
943.796	85.497822
943.984	85.442905
944.172	85.171155
944.361	84.900673
944.549	84.631361
944.737	84.552710
944.925	84.576952
945.113	85.068461
945.301	85.520072
945.489	86.288383
945.677	86.655621
945.865	85.973764
946.053	85.567859
946.241	85.581198
946.429	85.240255
946.617	84.797218
946.805	84.250282
946.992	84.152351
947.180	84.101919
947.368	84.362316
947.556	84.519156
947.744	84.997872
947.931	85.601898
948.119	85.830389
948.307	85.719787
948.495	85.776673
948.682	86.147237
948.870	86.573762
949.058	86.765207
949.245	86.793647
949.433	85.944100
949.621	85.257763
949.808	85.009951
949.996	84.876128
950.183	84.546921
950.371	85.004806
950.558	85.293083
950.746	84.556750
950.933	83.727028
951.121	82.849778
951.308	81.942852
951.496	81.965106
951.683	81.333544
951.870	80.282025
952.058	79.644629
952.245	79.123593
952.433	78.376505
952.620	77.420797
952.807	76.785642
952.994	76.352674
953.182	76.988286
953.369	77.381418
953.556	77.926370
953.743	78.935418
953.931	79.737460
954.118	79.984400
954.305	80.372794
954.492	80.410570
954.679	80.517558
954.866	81.108447
955.053	81.938072
955.240	81.814269
955.427	81.960128
955.615	81.769354
955.802	81.357211
955.989	81.128997
956.175	81.308603
956.362	81.896007
956.549	82.239704
956.736	83.253064
956.923	84.197082
957.110	85.094986
957.297	85.766226
957.484	85.673868
957.671	85.875011
957.857	86.151826
958.044	86.319908
958.231	86.221158
958.418	85.940864
958.604	85.474905
958.791	84.757331
958.978	84.438893
959.165	83.511839
959.351	82.213547
959.538	81.939976
959.724	81.293813
959.911	80.520456
960.098	80.226677
960.284	80.594870
960.471	80.380782
960.657	80.782434
960.844	81.029638
961.030	80.969922
961.217	81.196547
961.403	82.038497
961.590	82.625972
961.776	83.488662
961.963	84.953090
962.149	85.498524
962.335	85.116873
962.522	84.874803
962.708	84.473024
962.894	83.967057
963.081	83.780929
963.267	83.714103
963.453	83.468643
963.639	82.984121
963.826	82.533278
964.012	81.929038
964.198	82.030647
964.384	81.850140
964.570	81.695327
964.756	81.771949
964.943	82.351128
965.129	82.455762
965.315	81.913392
965.501	80.876053
965.687	80.632083
965.873	80.654717
966.059	80.728339
966.245	80.625639
966.431	81.299029
966.617	81.956922
966.803	82.217840
966.989	81.991152
967.174	82.481784
967.360	83.077548
967.546	84.266786
967.732	84.474149
967.918	84.363066
968.104	84.142567
968.289	83.299752
968.475	82.277472
968.661	82.000378
968.847	81.421980
969.032	80.600635
969.218	79.876140
969.404	79.615820
969.589	79.675198
969.775	79.494181
969.961	79.044381
970.146	78.865091
970.332	79.387323
970.517	79.813192
970.703	79.831692
970.888	80.608469
971.074	81.737610
971.260	81.937077
971.445	82.384438
971.630	82.365950
971.816	82.213220
972.001	82.937973
972.187	83.587730
972.372	83.826828
972.557	84.147832
972.743	83.773724
972.928	83.077721
973.113	83.100953
973.299	83.288352
973.484	83.217939
973.669	83.114241
973.854	84.066840
974.040	84.517924
974.225	84.555868
974.410	84.557041
974.595	84.156235
974.780	84.372364
974.965	84.579254
975.151	84.279315
975.336	84.201971
975.521	84.825203
975.706	85.399090
975.891	85.318053
976.076	84.754055
976.261	84.669880
976.446	84.614259
976.631	84.943163
976.816	85.544955
977.001	86.194427
977.186	85.875116
977.370	85.500427
977.555	84.855473
977.740	84.531715
977.925	84.986844
978.110	84.874113
978.295	84.575083
978.479	84.833999
978.664	85.332648
978.849	84.789753
979.034	84.261661
979.218	84.629930
979.403	85.116084
979.588	84.880346
979.772	84.551175
979.957	83.226861
980.141	82.755250
980.326	82.079242
980.511	81.328100
980.695	80.585083
980.880	80.543109
981.064	80.691875
981.249	81.064772
981.433	81.035054
981.618	81.678121
981.802	82.487859
981.987	83.727553
982.171	84.826266
982.355	86.558588
982.540	88.041408
982.724	89.213866
982.908	90.224854
983.093	91.358993
983.277	91.475341
983.461	92.158691
983.646	93.478233
983.830	94.245841
984.014	94.273851
984.198	94.038743
984.382	93.261497
984.567	92.301727
984.751	92.091238
984.935	92.083411
985.119	91.600349
985.303	91.470808
985.487	91.095015
985.671	89.908692
985.855	88.715965
986.039	88.065101
986.223	88.077261
986.407	88.448668
986.591	89.057243
986.775	88.570154
986.959	88.000699
987.143	87.281710
987.327	86.280613
987.511	84.846281
987.695	83.632942
987.879	83.504336
988.062	83.392474
988.246	83.020489
988.430	81.996942
988.614	82.177162
988.797	82.537908
988.981	83.101661
989.165	84.116786
989.349	86.161102
989.532	88.422636
989.716	90.564578
989.900	91.830596
990.083	92.512185
990.267	92.909313
990.450	93.360426
990.634	92.335775
990.817	91.684507
991.001	91.153288
991.184	90.654910
991.368	89.558148
991.551	89.111941
991.735	88.314237
991.918	87.720180
992.102	87.672548
992.285	87.649753
992.469	88.010208
992.652	88.539189
992.835	89.133997
993.019	89.005962
993.202	88.527232
993.385	88.441181
993.568	88.513948
993.752	88.537067
993.935	88.582470
994.118	88.884524
994.301	89.152232
994.484	89.074432
994.668	88.963461
994.851	88.768476
995.034	89.236318
995.217	90.180262
995.400	90.289206
995.583	89.386053
995.766	89.039870
995.949	88.529076
996.132	88.482808
996.315	88.099799
996.498	88.124972
996.681	88.244397
996.864	88.396877
997.047	88.621172
997.230	87.821893
997.413	86.959642
997.596	86.808988
997.778	86.952432
997.961	87.693268
998.144	87.737255
998.327	88.232943
998.510	88.335394
998.692	88.307865
998.875	88.255115
999.058	88.291658
999.241	88.809485
999.423	89.550723
999.606	89.762765
999.789	89.189338
999.971	88.618787
1000.154	88.227110
1000.336	87.620435
1000.519	86.403625
1000.701	85.653272
1000.884	85.429721
1001.067	85.437140
1001.249	84.738186
1001.431	84.021206
1001.614	84.051850
1001.796	84.214867
1001.979	84.486335
1002.161	85.028627
1002.344	85.511277
1002.526	85.911484
1002.708	86.314024
1002.891	85.949975
1003.073	85.658370
1003.255	86.116758
1003.438	86.454035
1003.620	86.360902
1003.802	87.346225
1003.984	87.688094
1004.166	87.618959
1004.349	87.715354
1004.531	88.754950
1004.713	90.036268
1004.895	90.664083
1005.077	90.476945
1005.259	91.029954
1005.441	91.355322
1005.623	92.573370
1005.805	92.218241
1005.987	91.490332
1006.169	90.664440
1006.351	90.588300
1006.533	90.557354
1006.715	89.917125
1006.897	89.949246
1007.079	90.060563
1007.261	89.078086
1007.443	88.288265
1007.625	87.428419
1007.806	87.173041
1007.988	86.979330
1008.170	87.330959
1008.352	87.635008
1008.534	87.341441
1008.715	86.620180
1008.897	86.796049
1009.079	86.988914
1009.260	87.465335
1009.442	88.171520
1009.624	88.102439
1009.805	88.184375
1009.987	88.132463
1010.169	88.259003
1010.350	88.516756
1010.532	89.320359
1010.713	90.133580
1010.895	89.827565
1011.076	89.458104
1011.258	89.468452
1011.439	89.678725
1011.621	90.242506
1011.802	90.868225
1011.983	91.579966
1012.165	91.441441
1012.346	90.597775
1012.527	89.904736
1012.709	89.855676
1012.890	90.266434
1013.071	90.962932
1013.253	91.132104
1013.434	91.403376
1013.615	91.252454
1013.796	90.330595
1013.978	90.429361
1014.159	91.599632
1014.340	92.970014
1014.521	93.171107
1014.702	93.799926
1014.883	93.422627
1015.064	92.530599
1015.245	92.233601
1015.427	92.160607
1015.608	91.554642
1015.789	92.084195
1015.970	92.261167
1016.151	92.447709
1016.332	92.099047
1016.512	92.636139
1016.693	93.114664
1016.874	94.065256
1017.055	94.376608
1017.236	94.376080
1017.417	93.689887
1017.598	94.129623
1017.779	95.148601
1017.959	94.208005
1018.140	92.586390
1018.321	92.122147
1018.502	91.810025
1018.682	90.380317
1018.863	88.857103
1019.044	88.767094
1019.224	89.290672
1019.405	90.688077
1019.586	91.513285
1019.766	90.700687
1019.947	91.574455
1020.127	92.334773
1020.308	92.049279
1020.488	91.334459
1020.669	91.492437
1020.849	92.417205
1021.030	93.029239
1021.210	92.518500
1021.391	90.819920
1021.571	89.288945
1021.752	89.019617
1021.932	88.930790
1022.112	89.583112
1022.293	90.062175
1022.473	90.422553
1022.653	92.104906
1022.834	92.779153
1023.014	92.303843
1023.194	92.680494
1023.374	93.090197
1023.555	93.423546
1023.735	93.462701
1023.915	93.032766
1024.095	92.431557
1024.275	92.163406
1024.455	93.081466
1024.635	91.555452
1024.816	90.681917
1024.996	90.937141
1025.176	90.901513
1025.356	91.426972
1025.536	91.609924
1025.716	91.863817
1025.896	91.986118
1026.076	91.325991
1026.256	91.391906
1026.436	90.662252
1026.615	90.956567
1026.795	90.601679
1026.975	89.991113
1027.155	89.451342
1027.335	88.474659
1027.515	88.374660
1027.695	88.072714
1027.874	87.367260
1028.054	86.598710
1028.234	86.004530
1028.413	85.789665
1028.593	85.536457
1028.773	85.521392
1028.953	85.693373
1029.132	85.431714
1029.312	86.017490
1029.491	86.819283
1029.671	87.227287
1029.851	89.041382
1030.030	91.577314
1030.210	92.984840
1030.389	93.055654
1030.569	92.144578
1030.748	92.141120
1030.928	92.227018
1031.107	92.699705
1031.286	93.675417
1031.466	92.970405
1031.645	92.452623
1031.825	92.158356
1032.004	92.061535
1032.183	92.447164
1032.363	92.612786
1032.542	94.035692
1032.721	94.845757
1032.900	94.594649
1033.080	95.096993
1033.259	95.445538
1033.438	96.734085
1033.617	97.539290
1033.796	97.267246
1033.975	96.096252
1034.155	95.113248
1034.334	94.986228
1034.513	94.489676
1034.692	93.690637
1034.871	93.910268
1035.050	93.564072
1035.229	93.889383
1035.408	93.069623
1035.587	92.616271
1035.766	92.100584
1035.945	91.357157
1036.124	90.874273
1036.303	91.061100
1036.481	91.060567
1036.660	92.324856
1036.839	92.472253
1037.018	92.885338
1037.197	92.487472
1037.376	91.943591
1037.554	91.075265
1037.733	90.998276
1037.912	92.269414
1038.091	92.785160
1038.269	93.565278
1038.448	93.251541
1038.627	91.932724
1038.805	91.699673
1038.984	90.725731
1039.162	89.006253
1039.341	89.287164
1039.520	89.870271
1039.698	90.671733
1039.877	89.428530
1040.055	88.630821
1040.234	87.787234
1040.412	87.627475
1040.591	87.347391
1040.769	87.802282
1040.947	88.628050
1041.126	88.906122
1041.304	88.215338
1041.483	87.949742
1041.661	87.075426
1041.839	87.764535
1042.017	88.423048
1042.196	88.429830
1042.374	88.302205
1042.552	87.874960
1042.730	87.139772
1042.909	87.218897
1043.087	87.453753
1043.265	88.140047
1043.443	88.068444
1043.621	88.768149
1043.799	88.920882
1043.978	88.332488
1044.156	88.635820
1044.334	88.706742
1044.512	89.459210
1044.690	89.954224
1044.868	89.940922
1045.046	89.459332
1045.224	88.426701
1045.402	88.331727
1045.580	87.689920
1045.758	87.663450
1045.935	87.793229
1046.113	87.309477
1046.291	87.091576
1046.469	87.119927
1046.647	86.939372
1046.825	86.636473
1047.002	87.623609
1047.180	89.146719
1047.358	89.679855
1047.536	89.434325
1047.713	88.735470
1047.891	89.076257
1048.069	89.861969
1048.246	91.073458
1048.424	91.447019
1048.602	91.701513
1048.779	91.757689
1048.957	91.687801
1049.134	91.277631
1049.312	91.338075
1049.489	91.616322
1049.667	91.490656
1049.844	91.058880
1050.022	89.568860
1050.199	88.563341
1050.377	88.195263
1050.554	88.318714
1050.731	88.002524
1050.909	87.187253
1051.086	86.934278
1051.263	86.294331
1051.441	86.008497
1051.618	86.298733
1051.795	86.539483
1051.973	87.218818
1052.150	88.015252
1052.327	88.307259
1052.504	88.509671
1052.681	87.987357
1052.859	88.051749
1053.036	88.065717
1053.213	88.840539
1053.390	89.554067
1053.567	90.273609
1053.744	90.745357
1053.921	91.848058
1054.098	92.399626
1054.275	93.087832
1054.452	92.991930
1054.629	93.773772
1054.806	94.318410
1054.983	94.427268
1055.160	94.766211
1055.337	94.593562
1055.514	93.509252
1055.691	92.490869
1055.868	91.193119
1056.044	90.312241
1056.221	89.377477
1056.398	88.319960
1056.575	87.691988
1056.751	87.760669
1056.928	88.094297
1057.105	88.075822
1057.282	87.398838
1057.458	86.882616
1057.635	86.959210
1057.812	87.170690
1057.988	86.335538
1058.165	86.357878
1058.341	86.868864
1058.518	87.215672
1058.694	86.753908
1058.871	86.499422
1059.047	85.808641
1059.224	86.254422
1059.401	86.898610
1059.577	87.034892
1059.753	87.240053
1059.930	87.500020
1060.106	87.406849
1060.282	87.676038
1060.459	87.806626
1060.635	87.169950
1060.812	86.010603
1060.988	85.430577
1061.164	85.136284
1061.340	85.177897
1061.517	85.085680
1061.693	84.566854
1061.869	84.825462
1062.045	84.683662
1062.221	84.241747
1062.398	83.795882
1062.574	84.533494
1062.750	85.273079
1062.926	86.266126
1063.102	86.527357
1063.278	86.480005
1063.454	86.996367
1063.630	87.532641
1063.806	87.758994
1063.982	88.165023
1064.158	88.202664
1064.334	88.500963
1064.510	88.444501
1064.686	88.570292
1064.862	88.041624
1065.038	87.552287
1065.214	87.043487
1065.389	86.137835
1065.565	85.866070
1065.741	85.684660
1065.917	85.855737
1066.093	85.798682
1066.268	85.346919
1066.444	85.074755
1066.620	84.994433
1066.795	84.810539
1066.971	84.371290
1067.147	84.254853
1067.322	84.956368
1067.498	84.889086
1067.673	84.832565
1067.849	83.935688
1068.025	83.945518
1068.200	85.054035
1068.376	85.077311
1068.551	84.760990
1068.727	84.813728
1068.902	85.308281
1069.078	85.932448
1069.253	85.942181
1069.428	86.367390
1069.604	86.474620
1069.779	86.036373
1069.954	85.548915
1070.130	85.491589
1070.305	85.182567
1070.480	85.078450
1070.656	85.120553
1070.831	85.387700
1071.006	85.171040
1071.181	84.899854
1071.357	84.532550
1071.532	84.637027
1071.707	86.065896
1071.882	86.554033
1072.057	85.787447
1072.232	86.063787
1072.407	85.470152
1072.582	85.423884
1072.757	85.695840
1072.932	86.224434
1073.107	86.470747
1073.282	86.159077
1073.457	85.660409
1073.632	84.751728
1073.807	84.373870
1073.982	83.866803
1074.157	83.416895
1074.332	84.260587
1074.507	84.013133
1074.682	82.495356
1074.856	81.750930
1075.031	81.454885
1075.206	82.303205
1075.381	82.749971
1075.556	82.553319
1075.730	82.692967
1075.905	83.319159
1076.080	83.759896
1076.254	83.659758
1076.429	84.334200
1076.604	85.127537
1076.778	84.722592
1076.953	84.444275
1077.127	83.399853
1077.302	82.295283
1077.477	82.016590
1077.651	81.345151
1077.826	80.929294
1078.000	80.984664
1078.175	80.558934
1078.349	79.292821
1078.523	79.060561
1078.698	79.681258
1078.872	79.844942
1079.047	79.698679
1079.221	80.183730
1079.395	81.230840
1079.570	81.591533
1079.744	81.807913
1079.918	81.524153
1080.092	81.752880
1080.267	81.786523
1080.441	81.856621
1080.615	82.640805
1080.789	83.418785
1080.963	83.255540
1081.137	82.702287
1081.312	81.874636
1081.486	82.225617
1081.660	82.242060
1081.834	81.686077
1082.008	81.369376
1082.182	81.861375
1082.356	82.018371
1082.530	81.046776
1082.704	79.743808
1082.878	79.957970
1083.052	79.991862
1083.226	80.187690
1083.400	79.934489
1083.573	79.770683
1083.747	80.229618
1083.921	79.880652
1084.095	79.117999
1084.269	78.968867
1084.443	79.120947
1084.616	79.885648
1084.790	80.193091
1084.964	80.391689
1085.138	79.915486
1085.311	79.680316
1085.485	79.014025
1085.659	78.437598
1085.832	78.413649
1086.006	78.993494
1086.179	78.478567
1086.353	78.196071
1086.527	77.856112
1086.700	77.650293
1086.874	77.645657
1087.047	77.759426
1087.221	78.071510
1087.394	78.986911
1087.568	79.996162
1087.741	80.975715
1087.914	80.956545
1088.088	81.729078
1088.261	82.035881
1088.435	81.739510
1088.608	81.848110
1088.781	81.938163
1088.954	82.722021
1089.128	82.636637
1089.301	81.691046
1089.474	80.917751
1089.647	79.996468
1089.821	79.745513
1089.994	79.556190
1090.167	79.476188
1090.340	79.615507
1090.513	79.252292
1090.686	78.841298
1090.859	78.307067
1091.032	77.613709
1091.206	77.954325
1091.379	77.826824
1091.552	77.992452
1091.725	77.949708
1091.898	77.621321
1092.071	77.081745
1092.244	76.640260
1092.416	76.531951
1092.589	76.234531
1092.762	75.362279
1092.935	75.446338
1093.108	75.338123
1093.281	75.281613
1093.453	74.374250
1093.626	74.257430
1093.799	74.666590
1093.972	74.984148
1094.145	74.860602
1094.317	74.680238
1094.490	75.432402
1094.663	75.222920
1094.835	75.146717
1095.008	75.304068
1095.181	74.401619
1095.353	75.219459
1095.526	75.948509
1095.698	75.084259
1095.871	74.826396
1096.043	74.503126
1096.216	74.078896
1096.388	73.539803
1096.561	73.843832
1096.733	73.748411
1096.906	73.850445
1097.078	74.611541
1097.250	73.930531
1097.423	72.862184
1097.595	73.479287
1097.768	73.646141
1097.940	74.283172
1098.112	74.761565
1098.284	74.914335
1098.457	75.239782
1098.629	75.826532
1098.801	75.709120
1098.973	76.054064
1099.146	77.152463
1099.318	77.884326
1099.490	77.388858
1099.662	77.348195
1099.834	76.963608
1100.006	76.248502
1100.178	75.724840
1100.350	74.944880
1100.522	74.435181
1100.694	73.597498
1100.866	73.090201
1101.038	73.260994
1101.210	73.215740
1101.382	73.098815
1101.554	72.605555
1101.726	72.834285
1101.898	72.951641
1102.070	72.722612
1102.241	73.309726
1102.413	73.402467
1102.585	73.769516
1102.757	73.351344
1102.929	71.598808
1103.100	70.383253
1103.272	70.127967
1103.444	70.159445
1103.616	69.715164
1103.787	69.583246
1103.959	69.737670
1104.130	69.224290
1104.302	69.082347
1104.474	68.694043
1104.645	68.401212
1104.817	68.516047
1104.988	68.452569
1105.160	68.639462
1105.331	68.695229
1105.503	68.644944
1105.674	69.107371
1105.846	69.398322
1106.017	69.847776
1106.189	69.993620
1106.360	70.017947
1106.531	70.463227
1106.703	70.802580
1106.874	71.268336
1107.045	71.140112
1107.217	71.031737
1107.388	70.613242
1107.559	69.956086
1107.730	69.289365
1107.902	69.137873
1108.073	68.976548
1108.244	69.190967
1108.415	69.401318
1108.586	69.378157
1108.757	69.168595
1108.929	68.998365
1109.100	68.911761
1109.271	69.312337
1109.442	69.147472
1109.613	69.534211
1109.784	69.447788
1109.955	69.529382
1110.126	69.768402
1110.297	69.446955
1110.468	69.709762
1110.639	70.026567
1110.809	70.073504
1110.980	70.238450
1111.151	70.126453
1111.322	70.717313
1111.493	70.697004
1111.664	70.465191
1111.834	70.144566
1112.005	69.389668
1112.176	69.422438
1112.347	69.212829
1112.517	68.769508
1112.688	68.200340
1112.859	67.198343
1113.029	67.080329
1113.200	67.015002
1113.371	66.876752
1113.541	66.405136
1113.712	65.695931
1113.882	66.040163
1114.053	65.793023
1114.223	65.993560
1114.394	66.111789
1114.564	65.959187
1114.735	66.447886
1114.905	66.064645
1115.076	65.565490
1115.246	65.335384
1115.416	65.543107
1115.587	65.799820
1115.757	65.265375
1115.927	65.217399
1116.098	64.558672
1116.268	64.128307
1116.438	64.485825
1116.609	64.450976
1116.779	64.807673
1116.949	64.902799
1117.119	64.783559
1117.289	64.971080
1117.459	65.340931
1117.630	65.801362
1117.800	65.901828
1117.970	65.913617
1118.140	66.308452
1118.310	66.005188
1118.480	65.692017
1118.650	65.474551
1118.820	65.293606
1118.990	64.970705
1119.160	64.432037
1119.330	64.070240
1119.500	63.644332
1119.670	63.321994
1119.840	63.695300
1120.010	63.155335
1120.179	62.991576
1120.349	63.391940
1120.519	63.165788
1120.689	63.292405
1120.859	63.589655
1121.028	63.859525
1121.198	63.665949
1121.368	63.409841
1121.538	63.266511
1121.707	63.018347
1121.877	63.506967
1122.047	64.128092
1122.216	64.165341
1122.386	64.054536
1122.555	63.373136
1122.725	63.241507
1122.894	62.776064
1123.064	62.962793
1123.233	62.831771
1123.403	62.803837
1123.573	62.371485
1123.742	62.097312
1123.911	61.872056
1124.081	61.370082
1124.250	61.487075
1124.419	62.237278
1124.589	62.512331
1124.758	62.880238
1124.927	62.614139
1125.097	62.715620
1125.266	62.296149
1125.435	62.140851
1125.605	61.905649
1125.774	61.519371
1125.943	61.472073
1126.112	61.252413
1126.281	61.036317
1126.450	60.792269
1126.620	60.711380
1126.789	60.416188
1126.958	60.445842
1127.127	61.056130
1127.296	61.519570
1127.465	61.769794
1127.634	62.429084
1127.803	62.676031
1127.972	62.546036
1128.141	62.109851
1128.310	61.415164
1128.479	60.843804
1128.648	61.071519
1128.817	60.842350
1128.985	60.473882
1129.154	59.679000
1129.323	58.872805
1129.492	58.148866
1129.661	57.572242
1129.829	57.537813
1129.998	57.496757
1130.167	57.814099
1130.336	58.010652
1130.504	58.307779
1130.673	58.602956
1130.842	58.752789
1131.010	59.106177
1131.179	59.306209
1131.347	59.083020
1131.516	58.652622
1131.685	58.449065
1131.853	58.261086
1132.022	57.608589
1132.190	57.512503
1132.359	56.688161
1132.527	56.287890
1132.696	55.824130
1132.864	55.251420
1133.032	54.895415
1133.201	54.608890
1133.369	54.837989
1133.537	54.987328
1133.706	54.881530
1133.874	55.727900
1134.042	55.130913
1134.211	54.893676
1134.379	54.769265
1134.547	54.514359
1134.715	54.603606
1134.884	54.751559
1135.052	54.877658
1135.220	54.945008
1135.388	55.084642
1135.556	55.233456
1135.724	54.876688
1135.892	55.447963
1136.060	55.876580
1136.228	55.863214
1136.396	55.896316
1136.564	55.605217
1136.732	55.640099
1136.900	55.563163
1137.068	55.411607
1137.236	54.382523
1137.404	53.495800
1137.572	53.139102
1137.740	53.162304
1137.908	52.775535
1138.076	52.627737
1138.243	52.946065
1138.411	52.936886
1138.579	52.184983
1138.747	51.782803
1138.914	51.246783
1139.082	51.440293
1139.250	51.873544
1139.417	51.865110
1139.585	51.067687
1139.753	51.292824
1139.920	51.611052
1140.088	51.098857
1140.256	51.254460
1140.423	51.895533
1140.591	52.042235
1140.758	52.271761
1140.926	51.948964
1141.093	51.766847
1141.261	51.535693
1141.428	51.608592
1141.596	51.272802
1141.763	50.542240
1141.930	50.673257
1142.098	50.548353
1142.265	50.631538
1142.432	50.850152
1142.600	50.709680
1142.767	50.829854
1142.934	50.455155
1143.102	50.178809
1143.269	50.172800
1143.436	50.429719
1143.603	50.591281
1143.771	50.501540
1143.938	50.894500
1144.105	50.565887
1144.272	49.982132
1144.439	49.863638
1144.606	50.058322
1144.773	50.511528
1144.940	50.653865
1145.107	50.637232
1145.274	50.271798
1145.441	49.997942
1145.608	49.889655
1145.775	49.753547
1145.942	49.577022
1146.109	49.961213
1146.276	50.319967
1146.443	50.225204
1146.610	50.031502
1146.776	50.142116
1146.943	50.107395
1147.110	49.466611
1147.277	49.143559
1147.444	48.968330
1147.610	48.301276
1147.777	47.984537
1147.944	47.612474
1148.110	47.369611
1148.277	47.570633
1148.444	47.548400
1148.610	47.600358
1148.777	47.554591
1148.944	47.748602
1149.110	48.175404
1149.277	47.728994
1149.443	47.715622
1149.610	48.109009
1149.776	48.076051
1149.943	48.384432
1150.109	47.787467
1150.276	47.210921
1150.442	46.764071
1150.608	46.942127
1150.775	47.327363
1150.941	47.073566
1151.107	47.513016
1151.274	47.707346
1151.440	47.272891
1151.606	47.133855
1151.773	46.656416
1151.939	46.883847
1152.105	47.423684
1152.271	47.384290
1152.438	47.057749
1152.604	46.897945
1152.770	46.916615
1152.936	46.914263
1153.102	47.244214
1153.268	47.286427
1153.434	47.541146
1153.600	47.838061
1153.766	48.074404
1153.932	48.255606
1154.098	48.193079
1154.264	48.117005
1154.430	48.425873
1154.596	48.560051
1154.762	48.492232
1154.928	48.371020
1155.094	48.837630
1155.260	48.791655
1155.426	48.240312
1155.591	47.804259
1155.757	47.399485
1155.923	47.171731
1156.089	46.676002
1156.255	45.901076
1156.420	45.455556
1156.586	45.280709
1156.752	44.749740
1156.917	44.295958
1157.083	43.918670
1157.249	43.939849
1157.414	43.753734
1157.580	43.450749
1157.745	43.280230
1157.911	43.700695
1158.076	43.889376
1158.242	43.814571
1158.407	43.899560
1158.573	44.170102
1158.738	44.229073
1158.904	44.344222
1159.069	44.488643
1159.235	44.628636
1159.400	44.715268
1159.565	44.533284
1159.731	44.411204
1159.896	44.233944
1160.061	44.432262
1160.227	44.387015
1160.392	43.873633
1160.557	43.425108
1160.722	43.396708
1160.888	43.759566
1161.053	44.264403
1161.218	44.799835
1161.383	45.490766
1161.548	45.417970
1161.713	45.331177
1161.878	45.538885
1162.043	45.782016
1162.208	45.884257
1162.374	45.808928
1162.539	45.889278
1162.704	45.169712
1162.869	44.329833
1163.033	43.969758
1163.198	43.784928
1163.363	43.817973
1163.528	44.387154
1163.693	44.292097
1163.858	44.270163
1164.023	44.731514
1164.188	45.072468
1164.353	45.001642
1164.517	45.254202
1164.682	45.391074
1164.847	45.089897
1165.011	45.089297
1165.176	45.528459
1165.341	45.104629
1165.506	44.709778
1165.670	44.492246
1165.835	44.228427
1166.000	44.176768
1166.164	44.322910
1166.329	44.484475
1166.493	44.849433
1166.658	45.228834
1166.822	45.677440
1166.987	45.733884
1167.151	45.870189
1167.316	46.041310
1167.480	46.150957
1167.645	45.905214
1167.809	45.495394
1167.973	45.193725
1168.138	44.843342
1168.302	44.768159
1168.466	45.136905
1168.631	44.733888
1168.795	44.192233
1168.959	44.354008
1169.124	44.666797
1169.288	43.926155
1169.452	43.639446
1169.616	43.920125
1169.780	44.428148
1169.944	44.690197
1170.109	44.470522
1170.273	43.607678
1170.437	43.237404
1170.601	43.263042
1170.765	42.871098
1170.929	42.496968
1171.093	42.660492
1171.257	42.948074
1171.421	43.043247
1171.585	42.796833
1171.749	42.119664
1171.913	42.067845
1172.077	42.447643
1172.240	43.016646
1172.404	43.473277
1172.568	43.746778
1172.732	43.629159
1172.896	43.854534
1173.060	43.885854
1173.223	43.853138
1173.387	43.625928
1173.551	43.989484
1173.715	44.090359
1173.878	44.254610
1174.042	43.960561
1174.206	43.562519
1174.369	43.588988
1174.533	43.854960
1174.696	43.437023
1174.860	43.433318
1175.023	43.587189
1175.187	43.137519
1175.351	42.724660
1175.514	43.122148
1175.677	43.259602
1175.841	42.844464
1176.004	42.636062
1176.168	42.039263
1176.331	41.708401
1176.495	41.967220
1176.658	41.917762
1176.821	41.639541
1176.985	42.245148
1177.148	43.014507
1177.311	42.915611
1177.474	42.703071
1177.638	43.026190
1177.801	42.987167
1177.964	43.361073
1178.127	43.649456
1178.291	43.663633
1178.454	43.897208
1178.617	44.082400
1178.780	44.092981
1178.943	43.886118
1179.106	43.389289
1179.269	43.068631
1179.432	43.219490
1179.595	43.288866
1179.758	43.183682
1179.921	43.014136
1180.084	43.253148
1180.247	43.084654
1180.410	42.919655
1180.573	42.985604
1180.736	42.770204
1180.899	42.511052
1181.061	42.551526
1181.224	42.500974
1181.387	42.579485
1181.550	42.562310
1181.713	43.119600
1181.875	43.346272
1182.038	43.904567
1182.201	44.025043
1182.363	43.767081
1182.526	44.052582
1182.689	44.545176
1182.851	44.765227
1183.014	45.033782
1183.177	45.115158
1183.339	45.226401
1183.502	44.889192
1183.664	45.016386
1183.827	45.202454
1183.989	45.343577
1184.152	45.465120
1184.314	45.207997
1184.477	44.986099
1184.639	45.023699
1184.801	44.724257
1184.964	44.696407
1185.126	44.599464
1185.288	44.710141
1185.451	44.422299
1185.613	43.803519
1185.775	43.762754
1185.938	43.934158
1186.100	44.476030
1186.262	44.935511
1186.424	44.781525
1186.586	45.029219
1186.749	45.132797
1186.911	45.310054
1187.073	45.148498
1187.235	45.023410
1187.397	45.102023
1187.559	45.318664
1187.721	45.211034
1187.883	44.588403
1188.045	44.054456
1188.207	44.299206
1188.369	44.216888
1188.531	44.143766
1188.693	44.232163
1188.855	44.023134
1189.017	44.211052
1189.179	44.211530
1189.341	43.932926
1189.502	43.767956
1189.664	44.201920
1189.826	44.805754
1189.988	45.001488
1190.150	45.111309
1190.311	45.499692
1190.473	45.940185
1190.635	46.347378
1190.796	46.456843
1190.958	46.630777
1191.120	46.613075
1191.281	46.810880
1191.443	47.039022
1191.604	46.845844
1191.766	46.627202
1191.928	47.075969
1192.089	47.315995
1192.251	47.248786
1192.412	47.346229
1192.574	46.948469
1192.735	46.770027
1192.896	46.879229
1193.058	46.930934
1193.219	46.682564
1193.381	46.443889
1193.542	46.445697
1193.703	46.209669
1193.865	45.893078
1194.026	45.614151
1194.187	45.542939
1194.349	45.995567
1194.510	46.082437
1194.671	46.077392
1194.832	46.657094
1194.993	47.341620
1195.155	47.746432
1195.316	48.156223
1195.477	48.733004
1195.638	48.856655
1195.799	48.983736
1195.960	48.807285
1196.121	48.879569
1196.282	49.480111
1196.443	49.776628
1196.604	49.240907
1196.765	48.493562
1196.926	48.179919
1197.087	48.113016
1197.248	47.744417
1197.409	47.538176
1197.570	47.275700
1197.730	47.525102
1197.891	47.171801
1198.052	46.385098
1198.213	46.274171
1198.374	46.303284
1198.534	46.316821
1198.695	46.586361
1198.856	46.209139
1199.016	46.123608
1199.177	46.298094
1199.338	46.934450
1199.498	47.079943
1199.659	47.493051
1199.820	48.368551
1199.980	48.045209
1200.141	48.085396
1200.301	48.529838
1200.462	48.615084
1200.622	49.033011
1200.783	49.053490
1200.943	49.215263
1201.104	48.771621
1201.264	48.598596
1201.424	48.688564
1201.585	48.898561
1201.745	49.576179
1201.906	49.479493
1202.066	49.087505
1202.226	48.878629
1202.386	48.902960
1202.547	48.831338
1202.707	48.508156
1202.867	49.187904
1203.027	49.726625
1203.188	49.638480
1203.348	48.871661
1203.508	48.686647
1203.668	49.096873
1203.828	49.674360
1203.988	50.049222
1204.148	49.753645
1204.308	49.507352
1204.468	50.012781
1204.628	49.553928
1204.788	49.038243
1204.948	48.570881
1205.108	48.356121
1205.268	48.195978
1205.428	48.137270
1205.588	47.636005
1205.748	47.522172
1205.908	47.972600
1206.068	48.305627
1206.228	47.789495
1206.387	47.835646
1206.547	48.458757
1206.707	49.115579
1206.867	49.677350
1207.026	50.264758
1207.186	50.280087
1207.346	50.684049
1207.505	51.126812
1207.665	51.007472
1207.825	51.407235
1207.984	51.941979
1208.144	52.039102
1208.303	51.824365
1208.463	51.914781
1208.622	51.743836
1208.782	51.118816
1208.941	50.736533
1209.101	50.287559
1209.260	50.273651
1209.420	50.283549
1209.579	49.745952
1209.739	49.653061
1209.898	49.849234
1210.057	49.901779
1210.217	49.728748
1210.376	50.171756
1210.535	50.577952
1210.694	51.005944
1210.854	51.733987
1211.013	51.798955
1211.172	51.944509
1211.331	52.381263
1211.490	52.247867
1211.650	52.240115
1211.809	52.401300
1211.968	52.730948
1212.127	52.915721
1212.286	52.833895
1212.445	52.762351
1212.604	52.479240
1212.763	52.491069
1212.922	52.808490
1213.081	52.537734
1213.240	53.105834
1213.399	53.162115
1213.558	52.861606
1213.717	52.671804
1213.876	52.521900
1214.035	53.197801
1214.194	53.800476
1214.352	54.232457
1214.511	54.721452
1214.670	54.625967
1214.829	55.041272
1214.988	54.920534
1215.146	54.780566
1215.305	55.092011
1215.464	55.354062
1215.622	55.807007
1215.781	55.618515
1215.940	55.202583
1216.098	54.896468
1216.257	54.656367
1216.415	54.659406
1216.574	55.133310
1216.732	55.734480
1216.891	56.648878
1217.049	57.095036
1217.208	57.213091
1217.366	56.940173
1217.525	57.407517
1217.683	58.057511
1217.842	58.396539
1218.000	57.845756
1218.158	57.333710
1218.317	56.715606
1218.475	56.110692
1218.633	55.370230
1218.792	54.813261
1218.950	54.461298
1219.108	54.365741
1219.266	53.980430
1219.425	53.950566
1219.583	54.266781
1219.741	54.975261
1219.899	56.154214
1220.057	56.905626
1220.215	57.446424
1220.373	58.068160
1220.531	58.437795
1220.689	58.439320
1220.847	57.916055
1221.005	57.294193
1221.163	56.450747
1221.322	55.800216
1221.479	55.253411
1221.637	54.513283
1221.795	53.950183
1221.953	53.740731
1222.111	53.281559
1222.269	52.738990
1222.427	53.038884
1222.584	53.667754
1222.742	54.035812
1222.900	54.215466
1223.058	54.115304
1223.216	54.463886
1223.373	54.829288
1223.531	54.834006
1223.689	54.542500
1223.846	54.565946
1224.004	55.114571
1224.162	54.912584
1224.319	54.725585
1224.477	54.661655
1224.634	55.043390
1224.792	54.972935
1224.949	54.784369
1225.107	54.256664
1225.264	54.223942
1225.422	54.498208
1225.579	54.599211
1225.737	54.720643
1225.894	55.121192
1226.052	55.060538
1226.209	55.156257
1226.366	55.073502
1226.523	55.593852
1226.681	55.773579
1226.838	56.294699
1226.995	56.424004
1227.153	56.101391
1227.310	56.138791
1227.467	56.089926
1227.624	56.169009
1227.781	56.526702
1227.938	56.649695
1228.096	57.034371
1228.253	57.291310
1228.410	57.620875
1228.567	57.752119
1228.724	58.275298
1228.881	58.832612
1229.038	58.497964
1229.195	58.429308
1229.352	58.577663
1229.509	58.774538
1229.666	58.706744
1229.823	58.381865
1229.980	58.614480
1230.136	58.807963
1230.293	58.574409
1230.450	58.581905
1230.607	58.580965
1230.764	59.025134
1230.921	59.281772
1231.077	59.589379
1231.234	59.476334
1231.391	59.949217
1231.547	60.575924
1231.704	60.280467
1231.861	60.010218
1232.018	60.548335
1232.174	60.149143
1232.331	60.188809
1232.487	60.490542
1232.644	60.359376
1232.800	59.949029
1232.957	59.660513
1233.113	59.235944
1233.270	58.979130
1233.426	59.489004
1233.583	59.849249
1233.739	59.431023
1233.896	59.605316
1234.052	59.533932
1234.208	60.005313
1234.365	60.889152
1234.521	61.391222
1234.677	61.542800
1234.834	62.321519
1234.990	62.763178
1235.146	62.148817
1235.302	61.844227
1235.459	62.312371
1235.615	62.548776
1235.771	62.110678
1235.927	61.269060
1236.083	60.803258
1236.239	60.918922
1236.396	61.525262
1236.552	60.765970
1236.708	59.899521
1236.864	59.880676
1237.020	59.776174
1237.176	59.502411
1237.332	59.503485
1237.488	60.289005
1237.644	60.449853
1237.799	59.979330
1237.955	59.391636
1238.111	58.613166
1238.267	58.497509
1238.423	58.159528
1238.579	57.725894
1238.734	57.739316
1238.890	58.273067
1239.046	58.302433
1239.202	57.719245
1239.357	57.415647
1239.513	57.715803
1239.669	57.851724
1239.824	58.735144
1239.980	59.513939
1240.136	60.393530
1240.291	61.217607
1240.447	61.650636
1240.603	61.112092
1240.758	60.972281
1240.914	61.054633
1241.069	61.192413
1241.225	60.677112
1241.380	60.272270
1241.535	59.951322
1241.691	60.080145
1241.846	60.268791
1242.002	60.402757
1242.157	60.299385
1242.313	60.425556
1242.468	60.909729
1242.623	61.598932
1242.778	62.218117
1242.934	62.870701
1243.089	63.397798
1243.244	63.176915
1243.399	62.701669
1243.554	62.372483
1243.710	62.342022
1243.865	62.458218
1244.020	62.216072
1244.175	62.259349
1244.330	61.876468
1244.485	60.968696
1244.640	60.541081
1244.795	60.287788
1244.950	60.593197
1245.105	60.606054
1245.260	60.481044
1245.415	60.426585
1245.570	60.777869
1245.725	61.172098
1245.880	60.315862
1246.035	60.872400
1246.190	62.100623
1246.345	63.495559
1246.499	64.434117
1246.654	64.605695
1246.809	64.841103
1246.964	65.095603
1247.118	64.526442
1247.273	64.079130
1247.428	63.890766
1247.583	63.914731
1247.737	63.590869
1247.892	62.889311
1248.047	61.851791
1248.201	61.311610
1248.356	61.925875
1248.510	62.233280
1248.665	62.406737
1248.819	63.240423
1248.974	64.160099
1249.128	65.465502
1249.283	66.054925
1249.437	66.381556
1249.592	66.852436
1249.746	67.108692
1249.900	67.180181
1250.055	66.341308
1250.209	66.388220
1250.363	66.795015
1250.518	67.333410
1250.672	66.812709
1250.826	66.369005
1250.981	66.711965
1251.135	66.696924
1251.289	66.493605
1251.443	66.809314
1251.597	67.151474
1251.751	67.864089
1251.906	67.957837
1252.060	67.504187
1252.214	66.500078
1252.368	65.990303
1252.522	65.004954
1252.676	64.579708
1252.830	64.491374
1252.984	65.490352
1253.138	65.251238
1253.292	65.352523
1253.446	64.710684
1253.600	64.329858
1253.754	65.203743
1253.907	65.020176
1254.061	65.431400
1254.215	66.556201
1254.369	66.969163
1254.523	67.280921
1254.677	67.297478
1254.830	67.458481
1254.984	66.832253
1255.138	66.465601
1255.292	66.137915
1255.445	65.189808
1255.599	66.145255
1255.752	66.134962
1255.906	65.215248
1256.060	65.173228
1256.213	64.677725
1256.367	64.080330
1256.520	63.996659
1256.674	63.983970
1256.827	64.770100
1256.981	65.666821
1257.134	65.699977
1257.288	65.237770
1257.441	65.288783
1257.594	65.862544
1257.748	66.420530
1257.901	66.351938
1258.055	65.978557
1258.208	65.689306
1258.361	66.201878
1258.515	66.069683
1258.668	65.760859
1258.821	66.606076
1258.974	66.635006
1259.127	67.015061
1259.281	67.657524
1259.434	67.687882
1259.587	68.457470
1259.740	68.845437
1259.893	70.005034
1260.046	69.838959
1260.199	70.104762
1260.352	70.151159
1260.505	69.306030
1260.658	68.907627
1260.811	68.144055
1260.964	67.845090
1261.117	67.759023
1261.270	67.632309
1261.423	68.156611
1261.576	67.769085
1261.729	67.918145
1261.882	68.606531
1262.035	69.025167
1262.188	70.021897
1262.340	70.537251
1262.493	70.923240
1262.646	71.062702
1262.798	70.742826
1262.951	71.051428
1263.104	71.167830
1263.257	70.650060
1263.409	70.732249
1263.562	69.653345
1263.714	69.338191
1263.867	68.173173
1264.020	68.327567
1264.172	68.486727
1264.325	67.566516
1264.477	67.980795
1264.630	68.260082
1264.782	68.252964
1264.935	69.072079
1265.087	68.695979
1265.240	68.816498
1265.392	69.450520
1265.544	71.049143
1265.697	71.236230
1265.849	70.558174
1266.001	71.119518
1266.154	70.408126
1266.306	69.719463
1266.458	69.042660
1266.610	68.803148
1266.762	69.746001
1266.915	70.006054
1267.067	69.530613
1267.219	68.597415
1267.371	68.445208
1267.523	68.928968
1267.675	68.724017
1267.828	69.277515
1267.979	69.907839
1268.132	70.059980
1268.284	69.692631
1268.436	69.694929
1268.588	70.443378
1268.740	70.559995
1268.891	70.428681
1269.043	71.134538
1269.195	71.307906
1269.347	72.050118
1269.499	73.415146
1269.651	73.940532
1269.803	74.567981
1269.955	75.082101
1270.106	75.188612
1270.258	74.507759
1270.410	75.070675
1270.562	75.605916
1270.713	75.003160
1270.865	75.137501
1271.017	74.603923
1271.168	72.110868
1271.320	71.251568
1271.471	71.375572
1271.623	71.359323
1271.775	70.527490
1271.926	70.335330
1272.078	70.034820
1272.229	70.867836
1272.381	71.475274
1272.532	71.814508
1272.684	71.817638
1272.835	72.648678
1272.986	72.549793
1273.138	72.375864
1273.289	71.764701
1273.440	71.124784
1273.592	71.152404
1273.743	71.272544
1273.894	69.739276
1274.046	68.692679
1274.197	68.386655
1274.348	68.218996
1274.500	68.189183
1274.651	67.723088
1274.802	66.801021
>>>>>>>>>> END of Data <<<<<<<<<<
