Date	2025年07月03日木曜日 09時53分13秒
Spectrometers	SR401765
ダーク	使用
リファレンス	使用
積分時間[msec]	300
平均回数	1
ｽﾑｰｼﾞﾝｸﾞ	5
Electrical Dark	USE
ピクセル数	3648
計測モード	反射率
保存開始波長[nm]	598.495
保存終了波長[nm]	1274.802
保存ﾋﾟｯﾁ波長[nm]	全波長

>>>>>>>>>> Data Start <<<<<<<<<<<<
598.495	33.333333
598.713	33.333333
598.931	33.333333
599.148	33.333333
599.366	0.000000
599.584	0.000000
599.802	-739.592576
600.020	-22.883917
600.238	78.094026
600.455	127.193747
600.673	103.272260
600.891	26.371637
601.109	22.342192
601.326	21.518962
601.544	20.712870
601.762	20.756762
601.979	20.941772
602.197	21.100374
602.415	21.107886
602.632	20.870632
602.850	20.794975
603.067	20.947848
603.285	21.158568
603.502	21.230580
603.720	21.412853
603.938	21.584749
604.155	21.676275
604.372	21.641115
604.590	21.575419
604.807	21.684137
605.025	21.972560
605.242	22.066913
605.460	21.950036
605.677	21.943097
605.894	21.857766
606.112	21.766185
606.329	21.881622
606.546	22.003131
606.764	22.256034
606.981	22.496737
607.198	22.567619
607.415	22.524473
607.633	22.687178
607.850	22.939928
608.067	23.036428
608.284	23.324463
608.501	23.615396
608.718	23.854683
608.935	24.094437
609.153	24.255683
609.370	24.453188
609.587	24.608705
609.804	24.978255
610.021	25.262732
610.238	25.408827
610.455	25.522043
610.672	25.608058
610.889	25.683544
611.106	25.749477
611.323	25.848197
611.540	26.080699
611.756	26.267333
611.973	26.371114
612.190	26.306044
612.407	26.529052
612.624	26.718617
612.841	27.014880
613.057	27.356008
613.274	27.521543
613.491	27.750588
613.708	28.028317
613.925	28.148657
614.141	28.279228
614.358	28.730568
614.575	29.117447
614.791	29.124223
615.008	29.329642
615.225	29.504852
615.441	29.769180
615.658	30.059736
615.874	30.199538
616.091	30.355322
616.307	30.482701
616.524	30.677931
616.740	30.826207
616.957	31.077807
617.173	31.438442
617.390	31.652545
617.606	31.889197
617.823	32.140772
618.039	32.467209
618.256	32.876999
618.472	33.111882
618.688	33.425432
618.905	33.666040
619.121	33.809012
619.337	33.947689
619.554	34.030173
619.770	34.198162
619.986	34.315255
620.202	34.308708
620.419	34.290376
620.635	34.377151
620.851	34.652852
621.067	34.967597
621.283	35.244917
621.499	35.547579
621.716	35.780138
621.932	36.135542
622.148	36.595136
622.364	36.960669
622.580	37.205417
622.796	37.438529
623.012	37.614399
623.228	37.762676
623.444	37.866075
623.660	38.130324
623.876	38.291845
624.092	38.475688
624.308	38.756725
624.524	38.704821
624.740	38.830627
624.955	39.340133
625.171	39.730685
625.387	39.906450
625.603	40.049596
625.819	40.204587
626.034	40.365547
626.250	40.601392
626.466	40.829222
626.682	40.886134
626.897	41.106783
627.113	41.153838
627.329	41.108104
627.544	41.271847
627.760	41.545377
627.976	41.810479
628.191	42.049234
628.407	42.266420
628.623	42.517081
628.838	42.747566
629.054	43.002531
629.269	43.205786
629.485	43.559434
629.700	43.942013
629.916	44.341086
630.131	44.722295
630.347	44.956276
630.562	45.230155
630.777	45.459381
630.993	45.579679
631.208	45.800620
631.424	46.035363
631.639	46.327871
631.854	46.548495
632.070	46.575740
632.285	46.566708
632.500	46.733973
632.715	46.876573
632.931	47.055092
633.146	47.218496
633.361	47.484734
633.576	47.799969
633.791	48.098980
634.007	48.382607
634.222	48.530657
634.437	48.662392
634.652	48.784967
634.867	48.676196
635.082	48.859929
635.297	49.097285
635.512	49.394875
635.727	49.683140
635.942	49.777389
636.157	49.926829
636.372	50.142416
636.587	50.473248
636.802	50.885732
637.017	51.291918
637.232	51.727607
637.447	51.995477
637.662	52.317227
637.876	52.556576
638.091	52.593720
638.306	52.816533
638.521	53.081543
638.736	53.060475
638.951	53.043545
639.165	53.135959
639.380	53.298084
639.595	53.420658
639.809	53.507224
640.024	53.523432
640.239	53.685575
640.453	53.855959
640.668	53.900611
640.883	53.918341
641.097	54.238356
641.312	54.475454
641.526	54.526456
641.741	54.548913
641.955	54.692926
642.170	54.929804
642.384	55.077281
642.599	54.979211
642.813	55.228374
643.028	55.542547
643.242	55.711001
643.457	55.806549
643.671	56.031339
643.885	56.393987
644.100	56.715747
644.314	56.933245
644.528	57.155452
644.743	57.331596
644.957	57.677362
645.171	57.929174
645.386	58.049687
645.600	58.282950
645.814	58.591878
646.028	58.754986
646.242	58.841013
646.457	58.902250
646.671	58.996253
646.885	59.209314
647.099	59.390539
647.313	59.384081
647.527	59.424160
647.741	59.607187
647.955	59.779492
648.169	59.853013
648.383	60.059781
648.597	60.187963
648.811	60.282129
649.025	60.486547
649.239	60.529457
649.453	60.642466
649.667	60.877741
649.881	61.143892
650.095	61.340176
650.309	61.486258
650.523	61.759488
650.737	61.989120
650.950	62.233250
651.164	62.488552
651.378	62.760439
651.592	62.883979
651.805	62.989725
652.019	63.225450
652.233	63.362924
652.447	63.450867
652.660	63.613069
652.874	63.775979
653.088	63.872339
653.301	64.001350
653.515	64.148163
653.728	64.107932
653.942	64.283953
654.156	64.470816
654.369	64.590116
654.583	64.662641
654.796	64.863669
655.010	64.990979
655.223	65.015879
655.437	65.009702
655.650	65.060944
655.863	65.139622
656.077	65.245995
656.290	65.320161
656.504	65.424504
656.717	65.419701
656.930	65.386403
657.144	65.238453
657.357	65.262956
657.570	65.415333
657.783	65.642918
657.997	65.756591
658.210	65.923713
658.423	66.175019
658.636	66.402447
658.849	66.463749
659.063	66.660820
659.276	66.899353
659.489	67.068683
659.702	67.178350
659.915	67.197866
660.128	67.160432
660.341	67.281813
660.554	67.463316
660.767	67.486934
660.980	67.478500
661.193	67.542298
661.406	67.530404
661.619	67.633397
661.832	67.942607
662.045	68.128675
662.258	68.296734
662.471	68.529249
662.684	68.630050
662.897	68.616960
663.110	68.669793
663.322	68.769507
663.535	68.958536
663.748	69.166388
663.961	69.407031
664.174	69.439638
664.386	69.436327
664.599	69.543762
664.812	69.558775
665.024	69.609851
665.237	69.661380
665.450	69.742992
665.662	69.885807
665.875	70.005700
666.088	70.114791
666.300	70.124978
666.513	70.192231
666.725	70.258391
666.938	70.215763
667.150	70.312071
667.363	70.407553
667.575	70.444343
667.788	70.625555
668.000	70.733479
668.213	70.829244
668.425	70.885654
668.638	70.766238
668.850	70.673260
669.062	70.726488
669.275	70.923144
669.487	71.083321
669.699	71.213554
669.912	71.459976
670.124	71.568167
670.336	71.678947
670.548	71.892822
670.761	72.107791
670.973	72.367561
671.185	72.560934
671.397	72.580477
671.609	72.520386
671.822	72.427479
672.034	72.303283
672.246	72.200854
672.458	72.252420
672.670	72.310745
672.882	72.238128
673.094	72.061724
673.306	71.879561
673.518	71.843976
673.730	72.014844
673.942	72.192063
674.154	72.365634
674.366	72.611725
674.578	72.839457
674.790	72.901874
675.002	72.759176
675.214	72.819358
675.425	73.039012
675.637	73.176961
675.849	73.313830
676.061	73.174189
676.273	73.103396
676.484	73.133479
676.696	73.048852
676.908	72.876601
677.120	72.892097
677.331	73.236184
677.543	73.325216
677.755	73.263932
677.966	73.442574
678.178	73.567010
678.389	73.743365
678.601	73.712542
678.813	73.736946
679.024	73.900025
679.236	74.122473
679.447	74.138035
679.659	73.957485
679.870	73.836406
680.082	73.841784
680.293	73.792165
680.505	73.815752
680.716	73.951220
680.927	74.138539
681.139	74.148985
681.350	74.248603
681.562	74.363440
681.773	74.392235
681.984	74.438702
682.196	74.471599
682.407	74.607953
682.618	74.630249
682.829	74.446405
683.041	74.278170
683.252	74.320684
683.463	74.503195
683.674	74.619654
683.885	74.660295
684.097	74.591824
684.308	74.620679
684.519	74.669569
684.730	74.444731
684.941	74.293515
685.152	74.391174
685.363	74.493756
685.574	74.492574
685.785	74.394289
685.996	74.240162
686.207	74.128520
686.418	74.173526
686.629	74.200022
686.840	74.230997
687.051	74.347655
687.262	74.486449
687.473	74.592539
687.684	74.681812
687.894	74.619347
688.105	74.720900
688.316	74.867208
688.527	75.016197
688.738	75.182587
688.948	75.212740
689.159	75.237082
689.370	75.374440
689.580	75.582353
689.791	75.721949
690.002	75.670881
690.212	75.691985
690.423	75.560996
690.634	75.402412
690.844	75.286082
691.055	75.315200
691.266	75.300492
691.476	75.236393
691.687	75.153024
691.897	75.014407
692.108	75.084837
692.318	75.312125
692.529	75.426813
692.739	75.421162
692.949	75.457412
693.160	75.464913
693.370	75.425345
693.581	75.583296
693.791	75.792401
694.001	75.882359
694.212	75.954557
694.422	75.730524
694.632	75.499700
694.843	75.511140
695.053	75.759742
695.263	75.927488
695.473	76.108869
695.683	76.324667
695.894	76.306970
696.104	76.305702
696.314	76.319549
696.524	76.200805
696.734	76.178695
696.944	76.343226
697.154	76.342657
697.365	76.388258
697.575	76.445362
697.785	76.414788
697.995	76.219383
698.205	76.187986
698.415	76.203885
698.625	76.170696
698.834	76.322000
699.044	76.464774
699.254	76.431501
699.464	76.433811
699.674	76.411135
699.884	76.302558
700.094	76.257929
700.304	76.309321
700.513	76.360975
700.723	76.358845
700.933	76.366376
701.143	76.353524
701.353	76.278528
701.562	76.189891
701.772	76.072218
701.982	75.961829
702.191	76.022893
702.401	76.037221
702.611	75.964459
702.820	75.759263
703.030	75.616262
703.239	75.588974
703.449	75.527935
703.659	75.557789
703.868	75.603189
704.078	75.705261
704.287	75.743621
704.497	75.605773
704.706	75.527673
704.916	75.585138
705.125	75.793287
705.334	75.886685
705.544	75.955398
705.753	75.977578
705.962	75.956626
706.172	75.978827
706.381	76.064659
706.590	76.132045
706.800	76.258900
707.009	76.202954
707.218	76.117993
707.428	76.061553
707.637	76.120047
707.846	76.108856
708.055	76.084615
708.264	76.088974
708.474	76.131140
708.683	76.159258
708.892	76.126740
709.101	76.011931
709.310	76.079901
709.519	76.085508
709.728	75.922394
709.937	75.691277
710.146	75.624914
710.355	75.811294
710.564	75.927727
710.773	76.022888
710.982	76.098124
711.191	76.087516
711.400	76.158614
711.609	76.147987
711.818	76.159898
712.027	76.237916
712.235	76.296137
712.444	76.338047
712.653	76.253577
712.862	76.262931
713.071	76.189028
713.279	75.978161
713.488	75.891079
713.697	75.855397
713.906	75.943487
714.114	75.976753
714.323	76.069974
714.532	76.216802
714.740	76.173564
714.949	76.070251
715.157	75.948511
715.366	75.779644
715.575	75.779858
715.783	75.965524
715.992	76.163059
716.200	76.096885
716.409	76.155683
716.617	76.071377
716.826	75.919198
717.034	75.976551
717.242	76.087873
717.451	76.121225
717.659	76.142553
717.868	75.996917
718.076	75.783287
718.284	75.507756
718.493	75.309401
718.701	75.087466
718.909	75.034493
719.118	75.008146
719.326	74.925618
719.534	74.776759
719.742	74.621441
719.951	74.694948
720.159	74.836369
720.367	74.870279
720.575	74.882509
720.783	74.921452
720.991	74.958717
721.199	74.891020
721.408	74.835723
721.616	74.751200
721.824	74.755201
722.032	74.914145
722.240	74.843066
722.448	74.680984
722.656	74.548840
722.864	74.447110
723.072	74.458171
723.280	74.320853
723.487	74.280028
723.695	74.318995
723.903	74.331282
724.111	74.379812
724.319	74.464063
724.527	74.554490
724.735	74.716169
724.942	74.840750
725.150	74.943070
725.358	74.933112
725.566	74.991174
725.773	74.988840
725.981	74.898703
726.189	74.908238
726.396	74.773052
726.604	74.558627
726.812	74.542250
727.019	74.473437
727.227	74.215109
727.435	74.059781
727.642	74.002811
727.850	73.924885
728.057	73.875272
728.265	73.744855
728.472	73.641472
728.680	73.634909
728.887	73.555843
729.095	73.476700
729.302	73.437332
729.509	73.396210
729.717	73.319932
729.924	73.333214
730.132	73.444791
730.339	73.424396
730.546	73.501098
730.753	73.589668
730.961	73.670458
731.168	73.767579
731.375	73.658647
731.583	73.531799
731.790	73.559713
731.997	73.575954
732.204	73.501109
732.411	73.315957
732.618	73.250514
732.826	73.200811
733.033	73.081386
733.240	72.863809
733.447	72.571947
733.654	72.459439
733.861	72.402407
734.068	72.278194
734.275	72.190358
734.482	72.124264
734.689	72.239930
734.896	72.395304
735.103	72.624468
735.310	72.708432
735.517	72.770460
735.724	72.904996
735.931	72.839375
736.137	72.718286
736.344	72.864063
736.551	73.035521
736.758	73.148162
736.965	73.131795
737.171	72.973172
737.378	72.727510
737.585	72.587240
737.792	72.402946
737.998	72.145790
738.205	72.081345
738.412	72.221273
738.618	72.141465
738.825	71.908665
739.032	71.782483
739.238	71.650970
739.445	71.715586
739.651	71.649050
739.858	71.568694
740.064	71.564165
740.271	71.634318
740.477	71.589589
740.684	71.433808
740.890	71.384894
741.097	71.271716
741.303	71.108377
741.510	71.073003
741.716	70.869458
741.922	70.668813
742.129	70.596118
742.335	70.640006
742.541	70.639622
742.748	70.683013
742.954	70.560988
743.160	70.367359
743.366	70.451112
743.573	70.592853
743.779	70.614783
743.985	70.647294
744.191	70.785190
744.397	70.764815
744.604	70.576901
744.810	70.436342
745.016	70.357704
745.222	70.412813
745.428	70.362621
745.634	70.116435
745.840	69.867973
746.046	69.612290
746.252	69.418533
746.458	69.239726
746.664	69.169801
746.870	69.193938
747.076	69.198926
747.282	69.128013
747.488	68.935099
747.694	68.814148
747.900	68.824929
748.105	68.793530
748.311	68.714670
748.517	68.710727
748.723	68.692432
748.929	68.606969
749.134	68.457819
749.340	68.284290
749.546	68.069976
749.752	67.981284
749.957	67.959482
750.163	67.924422
750.369	67.817114
750.574	67.738663
750.780	67.548973
750.985	67.442765
751.191	67.361811
751.397	67.354034
751.602	67.548562
751.808	67.774934
752.013	67.870168
752.219	67.858295
752.424	67.784890
752.630	67.765907
752.835	67.788893
753.041	67.829046
753.246	67.804746
753.451	67.697929
753.657	67.595560
753.862	67.312927
754.067	66.939946
754.273	66.618628
754.478	66.369036
754.683	66.238746
754.889	66.032113
755.094	65.883368
755.299	65.778305
755.504	65.629239
755.710	65.433061
755.915	65.196735
756.120	64.863481
756.325	64.615817
756.530	64.675039
756.735	64.772390
756.940	64.654273
757.146	64.499785
757.351	64.262249
757.556	64.060949
757.761	63.937042
757.966	64.004581
758.171	64.003903
758.376	64.071488
758.581	64.137806
758.786	63.827010
758.990	63.531134
759.195	63.360122
759.400	63.244313
759.605	63.204113
759.810	63.032828
760.015	62.727672
760.220	62.433886
760.424	62.219722
760.629	61.936056
760.834	61.761383
761.039	61.712285
761.244	61.744305
761.448	61.775380
761.653	61.730594
761.858	61.465267
762.062	61.155526
762.267	60.940434
762.472	60.636118
762.676	60.403018
762.881	60.320229
763.085	60.165525
763.290	60.005308
763.494	59.707551
763.699	59.312874
763.903	59.067834
764.108	59.092605
764.312	59.214938
764.517	59.254593
764.721	59.258035
764.926	59.316888
765.130	59.310751
765.335	59.216019
765.539	59.130226
765.743	58.935398
765.948	58.759118
766.152	58.604187
766.356	58.366297
766.560	58.112826
766.765	57.861507
766.969	57.642512
767.173	57.281376
767.377	56.910794
767.582	56.714944
767.786	56.545728
767.990	56.433318
768.194	56.393092
768.398	56.194025
768.602	56.008467
768.806	55.953590
769.010	55.820434
769.215	55.656124
769.419	55.479062
769.623	55.546022
769.827	55.401512
770.031	55.181071
770.234	54.972525
770.438	54.664405
770.642	54.383235
770.846	54.175311
771.050	53.822350
771.254	53.622251
771.458	53.368118
771.662	53.103849
771.866	52.711569
772.069	52.452600
772.273	52.229559
772.477	52.034989
772.681	51.852736
772.885	51.679725
773.088	51.343653
773.292	51.074511
773.496	50.824986
773.699	50.615040
773.903	50.543400
774.107	50.305457
774.310	50.059232
774.514	49.757519
774.717	49.432054
774.921	49.119152
775.124	48.895058
775.328	48.777492
775.531	48.634964
775.735	48.409525
775.938	48.194083
776.142	47.919251
776.345	47.662230
776.549	47.332897
776.752	47.104094
776.956	46.989220
777.159	46.901401
777.362	46.740937
777.566	46.503988
777.769	46.256952
777.972	45.992916
778.176	45.744033
778.379	45.390300
778.582	45.138357
778.785	44.948301
778.989	44.811732
779.192	44.459930
779.395	44.087162
779.598	43.947513
779.801	43.754432
780.004	43.440509
780.207	43.122282
780.411	42.799788
780.614	42.616311
780.817	42.380718
781.020	41.984801
781.223	41.604784
781.426	41.319360
781.629	41.064432
781.832	40.526813
782.035	40.118445
782.238	39.853810
782.440	39.623112
782.643	39.297954
782.846	38.863380
783.049	38.468614
783.252	38.337332
783.455	38.199885
783.658	38.008906
783.860	37.757493
784.063	37.478616
784.266	37.130464
784.469	36.778723
784.671	36.398964
784.874	36.085228
785.077	35.888084
785.279	35.660174
785.482	35.272944
785.685	34.912567
785.887	34.621934
786.090	34.347689
786.293	34.139084
786.495	33.884785
786.698	33.702122
786.900	33.443650
787.103	33.179388
787.305	32.868490
787.508	32.591607
787.710	32.317594
787.913	31.996801
788.115	31.668281
788.317	31.324216
788.520	30.979372
788.722	30.623628
788.924	30.089251
789.127	29.733209
789.329	29.353823
789.531	28.995566
789.734	28.692699
789.936	28.338152
790.138	27.846260
790.340	27.394242
790.543	27.105726
790.745	26.794005
790.947	26.505264
791.149	26.182812
791.351	25.837998
791.553	25.593956
791.756	25.291952
791.958	24.903738
792.160	24.593345
792.362	24.394329
792.564	24.170672
792.766	23.851199
792.968	23.551564
793.170	23.289964
793.372	23.175772
793.574	22.954539
793.776	22.714638
793.978	22.560890
794.180	22.363146
794.381	22.127461
794.583	21.896111
794.785	21.729619
794.987	21.542144
795.189	21.313875
795.391	20.962561
795.592	20.623898
795.794	20.338947
795.996	20.062441
796.198	19.660564
796.399	19.265773
796.601	18.968057
796.803	18.629405
797.004	18.190745
797.206	17.722182
797.407	17.322560
797.609	17.024084
797.811	16.790080
798.012	16.625068
798.214	16.283178
798.415	16.084878
798.617	15.929246
798.818	15.727733
799.020	15.539596
799.221	15.451336
799.423	15.487533
799.624	15.469817
799.826	15.481681
800.027	15.252203
800.228	14.931708
800.430	14.840938
800.631	14.562097
800.832	14.365595
801.034	14.108908
801.235	13.778165
801.436	13.533519
801.637	13.194417
801.839	12.817681
802.040	12.487841
802.241	12.330167
802.442	12.215279
802.643	11.994956
802.844	11.834922
803.046	11.628815
803.247	11.520548
803.448	11.425725
803.649	11.200128
803.850	11.005320
804.051	10.831225
804.252	10.656697
804.453	10.497589
804.654	10.287381
804.855	10.150271
805.056	10.057444
805.257	10.009642
805.458	9.930476
805.659	9.885976
805.859	9.838701
806.060	9.767908
806.261	9.798493
806.462	9.730515
806.663	9.591287
806.864	9.594499
807.064	9.672024
807.265	9.742299
807.466	9.756563
807.667	9.737851
807.867	9.637307
808.068	9.508676
808.269	9.453332
808.469	9.459879
808.670	9.504231
808.870	9.501660
809.071	9.453531
809.272	9.302144
809.472	9.224371
809.673	9.110267
809.873	9.013735
810.074	9.122862
810.274	9.207207
810.475	9.264202
810.675	9.314075
810.876	9.370125
811.076	9.501851
811.276	9.517930
811.477	9.545035
811.677	9.541465
811.878	9.584102
812.078	9.673196
812.278	9.630492
812.479	9.704659
812.679	9.686585
812.879	9.607307
813.079	9.569862
813.280	9.598020
813.480	9.786581
813.680	10.021201
813.880	10.169502
814.080	10.108855
814.280	10.084780
814.480	10.188007
814.681	10.224865
814.881	10.327055
815.081	10.470669
815.281	10.536635
815.481	10.562698
815.681	10.613807
815.881	10.593195
816.081	10.616204
816.281	10.905937
816.481	11.132004
816.681	11.335670
816.880	11.557056
817.080	11.752073
817.280	11.917956
817.480	12.160437
817.680	12.402062
817.880	12.605313
818.080	12.844431
818.279	13.096974
818.479	13.215544
818.679	13.379295
818.879	13.452215
819.078	13.549099
819.278	13.747381
819.478	13.959152
819.677	14.111844
819.877	14.228295
820.077	14.317279
820.276	14.491378
820.476	14.749383
820.675	14.983722
820.875	15.231307
821.074	15.460532
821.274	15.735719
821.473	16.008608
821.673	16.122829
821.872	16.221572
822.072	16.456023
822.271	16.755527
822.471	16.869008
822.670	16.919731
822.869	17.143430
823.069	17.269873
823.268	17.553197
823.467	17.708241
823.667	17.808177
823.866	18.107752
824.065	18.496328
824.265	18.822875
824.464	19.103345
824.663	19.554541
824.862	19.876722
825.061	20.075605
825.261	20.357647
825.460	20.639561
825.659	20.907865
825.858	21.146360
826.057	21.305689
826.256	21.365277
826.455	21.346504
826.654	21.462226
826.853	21.575816
827.052	21.846580
827.251	22.181118
827.450	22.551576
827.649	22.798933
827.848	23.044049
828.047	23.304093
828.246	23.614716
828.445	24.079215
828.644	24.465469
828.843	24.621357
829.041	24.803375
829.240	24.878647
829.439	24.898754
829.638	25.135866
829.836	25.365065
830.035	25.618943
830.234	25.902524
830.433	25.999881
830.631	26.088344
830.830	26.296864
831.029	26.606442
831.227	26.901436
831.426	27.307601
831.624	27.817156
831.823	28.024534
832.022	28.117541
832.220	28.408522
832.419	28.690786
832.617	29.140903
832.816	29.370176
833.014	29.585730
833.213	29.765214
833.411	29.880247
833.609	30.015314
833.808	30.189922
834.006	30.380699
834.205	30.654609
834.403	30.842108
834.601	31.071155
834.800	31.137679
834.998	31.358783
835.196	31.671873
835.394	31.944069
835.593	32.163885
835.791	32.260709
835.989	32.359441
836.187	32.578454
836.385	32.864255
836.584	32.959959
836.782	33.076386
836.980	33.289417
837.178	33.594386
837.376	33.747103
837.574	34.002589
837.772	34.288507
837.970	34.630240
838.168	35.038168
838.366	35.329110
838.564	35.532030
838.762	35.925529
838.960	36.192333
839.158	36.478560
839.356	36.759768
839.554	37.119969
839.752	37.381832
839.949	37.573882
840.147	37.763177
840.345	37.905053
840.543	38.127842
840.741	38.431545
840.938	38.721203
841.136	39.053489
841.334	39.360776
841.532	39.574527
841.729	39.630139
841.927	39.570739
842.125	39.818496
842.322	40.170415
842.520	40.358008
842.718	40.380485
842.915	40.477253
843.113	40.496748
843.310	40.605509
843.508	40.749506
843.705	40.845896
843.903	41.211535
844.100	41.641445
844.298	41.816352
844.495	41.978259
844.693	42.225085
844.890	42.403616
845.087	42.619487
845.285	42.869701
845.482	42.864300
845.679	42.985622
845.877	43.199534
846.074	43.283233
846.271	43.409313
846.469	43.524755
846.666	43.459223
846.863	43.513957
847.060	43.630121
847.257	43.605710
847.455	43.666429
847.652	43.923907
847.849	44.189719
848.046	44.502330
848.243	44.683165
848.440	44.922927
848.637	45.275666
848.834	45.638040
849.031	45.806484
849.228	46.128980
849.425	46.452078
849.622	46.627288
849.819	46.818073
850.016	46.995484
850.213	47.120183
850.410	47.346189
850.607	47.590561
850.804	47.829757
851.001	47.972558
851.198	48.204983
851.394	48.289243
851.591	48.365252
851.788	48.712168
851.985	49.118646
852.181	49.373671
852.378	49.496457
852.575	49.674517
852.772	49.822231
852.968	49.688756
853.165	49.631148
853.362	49.537778
853.558	49.559235
853.755	49.803069
853.951	49.683536
854.148	49.599687
854.345	49.635520
854.541	49.831518
854.738	49.773885
854.934	49.773750
855.131	50.160621
855.327	50.615589
855.523	51.010666
855.720	51.265855
855.916	51.452413
856.113	52.004360
856.309	52.339409
856.505	52.449365
856.702	52.385964
856.898	52.428269
857.094	52.328370
857.291	52.406868
857.487	52.568397
857.683	52.735696
857.879	52.893785
858.076	52.904736
858.272	52.759086
858.468	52.720423
858.664	52.823658
858.860	53.012015
859.056	53.343749
859.253	53.867200
859.449	53.943512
859.645	53.824713
859.841	53.880451
860.037	54.247129
860.233	54.684378
860.429	54.955593
860.625	55.158858
860.821	55.194048
861.017	55.329718
861.213	55.407204
861.409	55.467909
861.604	55.711928
861.800	56.046154
861.996	56.161961
862.192	56.088794
862.388	56.079337
862.584	56.175963
862.779	56.182788
862.975	56.380010
863.171	56.626025
863.367	56.828470
863.562	56.751515
863.758	56.776357
863.954	56.989375
864.149	57.073733
864.345	57.009284
864.541	56.822131
864.736	56.596357
864.932	56.547299
865.127	56.582764
865.323	56.438920
865.518	56.422393
865.714	56.739648
865.910	56.813118
866.105	56.440009
866.300	56.532162
866.496	56.692913
866.691	56.883153
866.887	57.162224
867.082	57.413035
867.277	57.356161
867.473	57.398149
867.668	57.503230
867.864	57.444289
868.059	57.402793
868.254	57.674740
868.449	57.619793
868.645	57.603997
868.840	57.424823
869.035	57.379048
869.230	57.399719
869.425	57.474306
869.621	57.709456
869.816	57.697709
870.011	57.646680
870.206	57.787633
870.401	57.835301
870.596	58.088923
870.791	58.303943
870.986	58.703558
871.181	58.890968
871.376	59.008453
871.571	59.347410
871.766	59.489583
871.961	59.746603
872.156	60.089540
872.351	60.258777
872.546	60.381553
872.741	60.489139
872.936	60.415203
873.130	60.404533
873.325	60.486459
873.520	60.481799
873.715	60.812482
873.910	60.892679
874.104	60.795813
874.299	60.714295
874.494	60.754141
874.688	60.945582
874.883	61.093621
875.078	61.561881
875.272	61.910781
875.467	62.007505
875.662	62.226697
875.856	62.016416
876.051	62.082632
876.245	62.300583
876.440	62.342007
876.634	62.533110
876.829	62.606776
877.023	62.372305
877.218	62.023169
877.412	61.728409
877.607	61.688436
877.801	61.882627
877.995	62.126424
878.190	62.563350
878.384	62.740761
878.578	62.819468
878.773	62.859961
878.967	62.949410
879.161	63.264233
879.356	63.539219
879.550	63.992644
879.744	64.296709
879.938	64.130447
880.133	63.870666
880.327	63.500550
880.521	63.368095
880.715	63.445105
880.909	63.319760
881.103	63.578961
881.297	63.583896
881.491	63.581465
881.685	63.284327
881.880	63.112771
882.073	63.224085
882.267	63.704310
882.461	63.836859
882.655	63.861986
882.849	63.861774
883.043	63.917763
883.237	63.862722
883.431	64.037976
883.625	64.397703
883.819	64.520768
884.013	64.641427
884.206	64.570367
884.400	64.427654
884.594	64.496542
884.788	64.671518
884.982	64.824890
885.175	65.124448
885.369	65.036891
885.563	65.126351
885.756	64.966925
885.950	65.322996
886.144	65.657698
886.337	65.872029
886.531	65.819898
886.724	65.749004
886.918	65.665266
887.112	65.676593
887.305	65.467634
887.499	65.407881
887.692	65.018661
887.885	64.966842
888.079	65.001789
888.272	64.866461
888.466	64.828770
888.659	64.919875
888.853	65.219761
889.046	65.514045
889.239	65.709677
889.433	65.794172
889.626	65.961117
889.819	66.284752
890.013	66.330132
890.206	66.153327
890.399	66.223953
890.592	66.363147
890.785	66.514443
890.979	66.530096
891.172	66.624066
891.365	66.829880
891.558	67.099539
891.751	67.249977
891.944	67.309621
892.137	67.354200
892.330	67.613268
892.524	67.563432
892.717	67.492137
892.910	67.328930
893.103	67.182882
893.296	67.045343
893.488	66.966504
893.681	66.830509
893.874	67.002061
894.067	67.403936
894.260	67.613699
894.453	67.263335
894.646	67.128495
894.839	67.087936
895.031	67.138503
895.224	67.402776
895.417	67.858154
895.610	68.178774
895.802	68.602133
895.995	68.616194
896.188	68.139729
896.381	67.947620
896.573	68.228759
896.766	68.676874
896.958	68.967726
897.151	69.224492
897.344	68.990966
897.536	68.802338
897.729	68.942774
897.921	68.665745
898.114	68.516897
898.306	69.007501
898.499	69.304711
898.691	69.394632
898.884	69.308012
899.076	69.501651
899.269	69.697430
899.461	69.908467
899.653	70.051775
899.846	69.886196
900.038	70.218872
900.230	70.492704
900.423	70.526593
900.615	70.504589
900.807	70.610246
901.000	70.846722
901.192	70.694241
901.384	70.247086
901.576	70.352977
901.768	70.223623
901.961	70.017249
902.153	69.625095
902.345	69.190143
902.537	68.870691
902.729	68.988833
902.921	69.261319
903.113	69.163297
903.305	69.354163
903.497	69.773274
903.689	69.582249
903.881	69.605467
904.073	69.921376
904.265	70.189354
904.457	70.428944
904.649	70.970358
904.841	71.122879
905.033	71.127093
905.224	71.525391
905.416	71.584997
905.608	71.256935
905.800	71.036313
905.992	70.869776
906.183	70.957372
906.375	70.977424
906.567	71.325251
906.759	70.980495
906.950	70.740263
907.142	70.596302
907.334	70.474129
907.525	70.443720
907.717	70.685442
907.909	71.078191
908.100	71.159254
908.292	70.784757
908.483	70.822788
908.675	70.805183
908.866	70.837845
909.058	71.084285
909.249	71.162155
909.441	71.101766
909.632	70.985954
909.824	70.754603
910.015	70.594771
910.206	70.921064
910.398	71.149320
910.589	71.115301
910.780	70.918614
910.972	71.077333
911.163	71.203886
911.354	71.157269
911.546	70.733749
911.737	70.740556
911.928	71.074996
912.119	71.241941
912.310	71.225127
912.502	71.520777
912.693	71.916580
912.884	72.157591
913.075	72.197819
913.266	72.151427
913.457	72.304725
913.648	72.828973
913.839	72.710645
914.030	72.335688
914.221	72.516283
914.412	72.525908
914.603	72.255823
914.794	72.001253
914.985	72.141481
915.176	72.203044
915.367	72.134055
915.558	71.966795
915.749	71.776170
915.940	71.980992
916.130	72.284769
916.321	72.195170
916.512	71.880476
916.703	71.878883
916.893	71.779579
917.084	71.248215
917.275	70.821332
917.466	70.733218
917.656	71.002942
917.847	71.281855
918.038	71.177856
918.228	71.023433
918.419	71.150834
918.609	71.440923
918.800	71.438864
918.990	71.432348
919.181	71.934336
919.372	72.360579
919.562	72.441744
919.753	72.441165
919.943	72.334089
920.133	72.360112
920.324	72.332447
920.514	72.174170
920.705	72.069246
920.895	71.877594
921.085	71.792295
921.276	71.732336
921.466	71.800193
921.656	71.992444
921.847	71.717543
922.037	71.684929
922.227	72.249228
922.417	72.588154
922.608	72.589714
922.798	72.750743
922.988	72.961381
923.178	73.140448
923.368	73.083941
923.558	73.241258
923.748	73.313746
923.939	73.594540
924.129	73.911576
924.319	73.467892
924.509	73.446789
924.699	73.602766
924.889	73.408267
925.079	73.511003
925.269	73.373142
925.459	73.535768
925.648	73.648825
925.838	73.840150
926.028	73.857639
926.218	73.946231
926.408	74.418124
926.598	74.553329
926.788	74.658539
926.977	74.835117
927.167	74.803919
927.357	75.194635
927.547	75.403537
927.736	75.244688
927.926	75.178303
928.116	75.275917
928.305	75.094875
928.495	74.896721
928.685	75.270367
928.874	75.526907
929.064	75.467444
929.253	75.406543
929.443	75.657660
929.633	75.802065
929.822	75.876702
930.012	75.846082
930.201	75.853286
930.391	75.685440
930.580	75.506938
930.769	75.198062
930.959	74.977299
931.148	75.345619
931.338	75.595647
931.527	75.405444
931.716	74.911015
931.906	74.640947
932.095	74.531140
932.284	74.498730
932.474	74.587941
932.663	74.769198
932.852	74.521769
933.041	74.416862
933.230	74.217552
933.420	74.194408
933.609	74.045235
933.798	74.228991
933.987	74.347022
934.176	74.480245
934.365	74.555041
934.554	74.564308
934.743	74.600099
934.932	75.155321
935.121	75.222100
935.310	75.227450
935.499	75.279665
935.688	75.723055
935.877	75.607473
936.066	75.642825
936.255	75.518647
936.444	75.402484
936.633	75.453406
936.822	75.485237
937.010	75.141051
937.199	75.214755
937.388	75.439311
937.577	75.258663
937.766	74.922812
937.954	75.206919
938.143	75.466915
938.332	75.475674
938.520	75.860100
938.709	75.921985
938.898	75.402156
939.086	75.238822
939.275	75.459412
939.464	75.537198
939.652	75.813192
939.841	75.643694
940.029	75.388467
940.218	74.951922
940.406	74.767269
940.595	74.353532
940.783	73.989856
940.972	73.859805
941.160	73.924666
941.349	73.832934
941.537	73.638850
941.725	73.385011
941.914	73.565257
942.102	73.909110
942.290	74.251217
942.479	74.671606
942.667	74.589461
942.855	74.956867
943.043	75.803956
943.232	76.291074
943.420	76.148090
943.608	76.083019
943.796	76.362335
943.984	76.479148
944.172	76.359716
944.361	76.458165
944.549	76.108155
944.737	76.119616
944.925	75.804645
945.113	75.486148
945.301	75.245808
945.489	75.485191
945.677	75.529281
945.865	75.209934
946.053	75.398091
946.241	75.702421
946.429	75.397975
946.617	75.466606
946.805	75.713774
946.992	76.031563
947.180	75.984000
947.368	75.859825
947.556	75.612369
947.744	75.754508
947.931	76.364000
948.119	76.186389
948.307	75.694015
948.495	75.743489
948.682	75.459334
948.870	74.958144
949.058	74.813188
949.245	74.910054
949.433	74.671691
949.621	74.645564
949.808	74.732348
949.996	74.181656
950.183	74.249465
950.371	74.972405
950.558	75.488084
950.746	75.955741
950.933	76.102164
951.121	76.233391
951.308	76.628305
951.496	77.462324
951.683	77.618798
951.870	77.427504
952.058	77.481389
952.245	77.278652
952.433	77.116515
952.620	76.989355
952.807	76.883545
952.994	76.627545
953.182	76.587574
953.369	76.397441
953.556	76.184477
953.743	76.067538
953.931	76.013477
954.118	76.412701
954.305	76.521831
954.492	76.250543
954.679	75.844397
954.866	75.517557
955.053	76.166635
955.240	76.524609
955.427	76.486880
955.615	76.393464
955.802	76.458825
955.989	76.578406
956.175	76.349811
956.362	76.562482
956.549	76.600676
956.736	77.134417
956.923	77.450989
957.110	77.512132
957.297	77.393958
957.484	77.527563
957.671	77.387711
957.857	78.063005
958.044	78.375165
958.231	78.348369
958.418	78.470629
958.604	78.128548
958.791	78.108227
958.978	78.679858
959.165	78.571612
959.351	78.196207
959.538	77.886812
959.724	77.928248
959.911	77.652964
960.098	77.495706
960.284	77.669353
960.471	76.890054
960.657	76.931233
960.844	76.831675
961.030	76.196433
961.217	75.661306
961.403	76.131004
961.590	76.778110
961.776	77.093727
961.963	76.943046
962.149	76.740517
962.335	76.665259
962.522	77.145890
962.708	77.108823
962.894	76.961819
963.081	77.336240
963.267	77.997333
963.453	78.086738
963.639	77.811392
963.826	77.569333
964.012	77.548298
964.198	77.745716
964.384	77.695246
964.570	77.885387
964.756	78.101159
964.943	78.161921
965.129	77.956991
965.315	77.558972
965.501	76.685936
965.687	76.315003
965.873	76.245693
966.059	76.388188
966.245	76.762085
966.431	77.340298
966.617	77.143820
966.803	77.148032
966.989	77.280818
967.174	77.768192
967.360	78.603796
967.546	79.585535
967.732	79.544222
967.918	80.035264
968.104	80.180609
968.289	79.622953
968.475	79.282335
968.661	79.784488
968.847	79.945393
969.032	79.825669
969.218	79.532512
969.404	79.615608
969.589	79.578235
969.775	79.959543
969.961	79.444124
970.146	79.289026
970.332	79.865109
970.517	80.011156
970.703	79.494925
970.888	79.744328
971.074	79.655164
971.260	79.422492
971.445	79.071432
971.630	78.929888
971.816	78.464061
972.001	78.421308
972.187	78.571989
972.372	78.470204
972.557	78.458149
972.743	78.683238
972.928	77.933732
973.113	78.009599
973.299	78.423657
973.484	78.730808
973.669	78.868745
973.854	79.379827
974.040	80.056229
974.225	80.578208
974.410	80.706973
974.595	80.051424
974.780	79.772282
974.965	79.861433
975.151	80.295340
975.336	80.573089
975.521	80.584780
975.706	80.491731
975.891	80.395244
976.076	79.807440
976.261	79.390608
976.446	78.940051
976.631	79.632579
976.816	80.117809
977.001	80.828300
977.186	80.859782
977.370	80.413675
977.555	80.369009
977.740	80.560979
977.925	81.106183
978.110	81.473522
978.295	80.959164
978.479	81.094010
978.664	81.611393
978.849	81.718666
979.034	81.515013
979.218	81.208790
979.403	81.543837
979.588	81.181412
979.772	81.349070
979.957	81.336305
980.141	81.614771
980.326	81.696022
980.511	81.884939
980.695	81.250824
980.880	80.984556
981.064	81.203212
981.249	81.665789
981.433	81.603538
981.618	82.005082
981.802	82.019407
981.987	81.935281
982.171	81.805921
982.355	82.324003
982.540	82.174175
982.724	82.771377
982.908	83.268857
983.093	83.553508
983.277	82.878180
983.461	82.797056
983.646	83.365137
983.830	83.730469
984.014	83.821584
984.198	83.017989
984.382	82.747247
984.567	83.085233
984.751	82.615987
984.935	82.710984
985.119	82.665214
985.303	82.942812
985.487	83.298421
985.671	82.961071
985.855	82.338259
986.039	81.946651
986.223	82.626688
986.407	83.024731
986.591	82.955963
986.775	82.873138
986.959	82.324765
987.143	82.393127
987.327	82.718027
987.511	82.085441
987.695	81.568542
987.879	81.878532
988.062	81.999755
988.246	82.007198
988.430	81.778621
988.614	82.239002
988.797	82.854246
988.981	83.506995
989.165	82.961415
989.349	83.133277
989.532	83.702149
989.716	83.689267
989.900	83.809020
990.083	84.129849
990.267	84.080755
990.450	84.501963
990.634	84.020147
990.817	83.342251
991.001	83.062300
991.184	83.329081
991.368	82.485250
991.551	82.588962
991.735	83.259915
991.918	82.659801
992.102	82.846679
992.285	83.583566
992.469	83.457881
992.652	83.765799
992.835	84.494421
993.019	84.123923
993.202	84.279696
993.385	84.839008
993.568	85.240884
993.752	85.296864
993.935	85.527336
994.118	85.198256
994.301	85.371758
994.484	85.767370
994.668	85.452033
994.851	85.220018
995.034	85.716365
995.217	85.576925
995.400	85.632086
995.583	85.218280
995.766	85.506508
995.949	85.151222
996.132	85.923275
996.315	85.826494
996.498	85.493402
996.681	85.379108
996.864	84.998269
997.047	85.593714
997.230	85.450177
997.413	85.245939
997.596	85.050147
997.778	84.232843
997.961	85.792642
998.144	85.514177
998.327	84.934797
998.510	85.165553
998.692	85.495056
998.875	86.314526
999.058	86.736151
999.241	87.660933
999.423	88.203548
999.606	88.973274
999.789	89.252745
999.971	88.526444
1000.154	88.186568
1000.336	88.418992
1000.519	88.099196
1000.701	88.342873
1000.884	88.414436
1001.067	88.260365
1001.249	87.757415
1001.431	87.591160
1001.614	87.164341
1001.796	87.561754
1001.979	87.760764
1002.161	87.895744
1002.344	87.610967
1002.526	87.684154
1002.708	87.063499
1002.891	86.131679
1003.073	86.196011
1003.255	86.535365
1003.438	86.820162
1003.620	86.300166
1003.802	86.319226
1003.984	86.420495
1004.166	86.598426
1004.349	87.324326
1004.531	87.681784
1004.713	88.631157
1004.895	89.662280
1005.077	88.648910
1005.259	87.968126
1005.441	87.311126
1005.623	88.107643
1005.805	88.309735
1005.987	88.333722
1006.169	88.086138
1006.351	87.420708
1006.533	87.029534
1006.715	86.484209
1006.897	85.922164
1007.079	86.583703
1007.261	87.466465
1007.443	87.632866
1007.625	87.415507
1007.806	87.584112
1007.988	88.125451
1008.170	88.211091
1008.352	89.267265
1008.534	89.914178
1008.715	90.130553
1008.897	90.806975
1009.079	90.393914
1009.260	90.227419
1009.442	91.058216
1009.624	91.020345
1009.805	89.867762
1009.987	88.306320
1010.169	87.865701
1010.350	87.589505
1010.532	87.412027
1010.713	87.416903
1010.895	86.895204
1011.076	87.372066
1011.258	87.062141
1011.439	86.219639
1011.621	86.625053
1011.802	87.151169
1011.983	87.689175
1012.165	87.728738
1012.346	86.885559
1012.527	85.939711
1012.709	85.528926
1012.890	85.575084
1013.071	85.338670
1013.253	85.681447
1013.434	86.326958
1013.615	85.733784
1013.796	85.896039
1013.978	86.348473
1014.159	86.556134
1014.340	87.246085
1014.521	87.722464
1014.702	88.164981
1014.883	88.799858
1015.064	88.051990
1015.245	88.096556
1015.427	88.694728
1015.608	89.214702
1015.789	88.984659
1015.970	88.839189
1016.151	89.804344
1016.332	90.115748
1016.512	90.900408
1016.693	91.724737
1016.874	91.050071
1017.055	91.599860
1017.236	91.250744
1017.417	90.486857
1017.598	90.526134
1017.779	91.283205
1017.959	91.421802
1018.140	90.690012
1018.321	91.094188
1018.502	91.422855
1018.682	91.178200
1018.863	91.124323
1019.044	91.169091
1019.224	91.198916
1019.405	91.651651
1019.586	91.668844
1019.766	91.084524
1019.947	90.762110
1020.127	90.643064
1020.308	89.554632
1020.488	88.808800
1020.669	88.676909
1020.849	89.433137
1021.030	90.096909
1021.210	89.762191
1021.391	89.217857
1021.571	88.927230
1021.752	88.985012
1021.932	89.608395
1022.112	90.579437
1022.293	90.612846
1022.473	90.768013
1022.653	90.828980
1022.834	90.489410
1023.014	90.207013
1023.194	91.193556
1023.374	91.096149
1023.555	90.562637
1023.735	90.611577
1023.915	90.316010
1024.095	90.441650
1024.275	91.432496
1024.455	91.940830
1024.635	92.034295
1024.816	91.842962
1024.996	91.329497
1025.176	91.135446
1025.356	91.462207
1025.536	91.989383
1025.716	92.302043
1025.896	92.289625
1026.076	91.999342
1026.256	91.883878
1026.436	91.420370
1026.615	91.057266
1026.795	90.827064
1026.975	90.315886
1027.155	89.574030
1027.335	88.423463
1027.515	88.590132
1027.695	88.908821
1027.874	89.019815
1028.054	88.061928
1028.234	87.593207
1028.413	88.223888
1028.593	88.864197
1028.773	88.990636
1028.953	89.143416
1029.132	88.935217
1029.312	89.928223
1029.491	90.458878
1029.671	90.553546
1029.851	91.330108
1030.030	91.909073
1030.210	92.491515
1030.389	92.020516
1030.569	91.492133
1030.748	91.582006
1030.928	91.929225
1031.107	91.639107
1031.286	91.718577
1031.466	91.381460
1031.645	91.035654
1031.825	90.602533
1032.004	91.782843
1032.183	91.929949
1032.363	91.884260
1032.542	92.448536
1032.721	92.991900
1032.900	93.328126
1033.080	94.715901
1033.259	94.869979
1033.438	95.274204
1033.617	95.276682
1033.796	95.196259
1033.975	93.697630
1034.155	92.765151
1034.334	92.926473
1034.513	92.273611
1034.692	91.474769
1034.871	91.395373
1035.050	91.385873
1035.229	92.519898
1035.408	92.289190
1035.587	91.930664
1035.766	91.475891
1035.945	91.208258
1036.124	89.925753
1036.303	88.672241
1036.481	87.942890
1036.660	88.756707
1036.839	89.310942
1037.018	89.865354
1037.197	88.983532
1037.376	88.434853
1037.554	88.367567
1037.733	88.573900
1037.912	89.829203
1038.091	91.474648
1038.269	92.613118
1038.448	93.398024
1038.627	92.444860
1038.805	91.665540
1038.984	90.116442
1039.162	88.846769
1039.341	88.752255
1039.520	88.946430
1039.698	88.019448
1039.877	86.263833
1040.055	85.606444
1040.234	85.190201
1040.412	85.328822
1040.591	85.193048
1040.769	84.817370
1040.947	85.331830
1041.126	85.951670
1041.304	86.085343
1041.483	86.009607
1041.661	86.323925
1041.839	87.063688
1042.017	86.642121
1042.196	86.697575
1042.374	86.538925
1042.552	87.378866
1042.730	88.155663
1042.909	88.497065
1043.087	89.319004
1043.265	90.531814
1043.443	90.154278
1043.621	90.455671
1043.799	91.151619
1043.978	91.339498
1044.156	90.908590
1044.334	90.525029
1044.512	89.748171
1044.690	89.035006
1044.868	88.852207
1045.046	87.409585
1045.224	85.877911
1045.402	86.606775
1045.580	86.309620
1045.758	85.875356
1045.935	86.302774
1046.113	86.917194
1046.291	87.592685
1046.469	88.196355
1046.647	88.237440
1046.825	88.013642
1047.002	88.841442
1047.180	89.343212
1047.358	88.672965
1047.536	89.270565
1047.713	89.529867
1047.891	89.810506
1048.069	89.465308
1048.246	88.525749
1048.424	88.021355
1048.602	88.807727
1048.779	89.165005
1048.957	89.018968
1049.134	88.763430
1049.312	89.053464
1049.489	88.667823
1049.667	88.369716
1049.844	87.964069
1050.022	87.410803
1050.199	88.079225
1050.377	88.360467
1050.554	88.167146
1050.731	88.152883
1050.909	88.022057
1051.086	88.425214
1051.263	88.075320
1051.441	88.455743
1051.618	89.068133
1051.795	89.397053
1051.973	90.282637
1052.150	90.357735
1052.327	90.362825
1052.504	90.065250
1052.681	89.163590
1052.859	89.746439
1053.036	89.968081
1053.213	90.794185
1053.390	91.001091
1053.567	90.569748
1053.744	90.196716
1053.921	90.857985
1054.098	91.125476
1054.275	91.269802
1054.452	91.640787
1054.629	92.319770
1054.806	91.765749
1054.983	91.070173
1055.160	90.591149
1055.337	90.322485
1055.514	89.622079
1055.691	89.144652
1055.868	87.626518
1056.044	86.950979
1056.221	87.198393
1056.398	87.025460
1056.575	86.072599
1056.751	86.305878
1056.928	86.832220
1057.105	86.948792
1057.282	86.466346
1057.458	86.423423
1057.635	86.105577
1057.812	86.530163
1057.988	85.946153
1058.165	84.599992
1058.341	84.378231
1058.518	85.050913
1058.694	84.980032
1058.871	85.416947
1059.047	85.802390
1059.224	85.487606
1059.401	86.005954
1059.577	86.489255
1059.753	86.499121
1059.930	87.175836
1060.106	88.001629
1060.282	87.796675
1060.459	87.609469
1060.635	86.914570
1060.812	85.539727
1060.988	84.402707
1061.164	84.409167
1061.340	83.764768
1061.517	84.189922
1061.693	84.384367
1061.869	83.780932
1062.045	83.270388
1062.221	83.218011
1062.398	83.237251
1062.574	83.637320
1062.750	84.259292
1062.926	84.451080
1063.102	84.262187
1063.278	84.617852
1063.454	84.290263
1063.630	83.841432
1063.806	83.928332
1063.982	84.222122
1064.158	84.225555
1064.334	83.992465
1064.510	83.598639
1064.686	83.038111
1064.862	83.516822
1065.038	84.026043
1065.214	83.660967
1065.389	82.706357
1065.565	82.930706
1065.741	83.404551
1065.917	83.750749
1066.093	83.290380
1066.268	83.164208
1066.444	83.254232
1066.620	83.319107
1066.795	82.916631
1066.971	82.785600
1067.147	82.745179
1067.322	82.962215
1067.498	83.208815
1067.673	83.089799
1067.849	82.610118
1068.025	83.151990
1068.200	84.363531
1068.376	84.629612
1068.551	84.298403
1068.727	83.978682
1068.902	83.698920
1069.078	83.551455
1069.253	84.243888
1069.428	84.466853
1069.604	84.667041
1069.779	84.361596
1069.954	83.505276
1070.130	82.940801
1070.305	82.483147
1070.480	82.963569
1070.656	83.248390
1070.831	82.921569
1071.006	82.718916
1071.181	82.711657
1071.357	82.017775
1071.532	81.337982
1071.707	81.558724
1071.882	82.048601
1072.057	82.113090
1072.232	82.966127
1072.407	82.376187
1072.582	82.310982
1072.757	82.842357
1072.932	83.323070
1073.107	82.912521
1073.282	82.752106
1073.457	82.455060
1073.632	82.266916
1073.807	82.907982
1073.982	82.113345
1074.157	81.442100
1074.332	82.369770
1074.507	82.253749
1074.682	81.469547
1074.856	81.010292
1075.031	80.600397
1075.206	80.808182
1075.381	80.990011
1075.556	81.097788
1075.730	81.235774
1075.905	81.476657
1076.080	81.084932
1076.254	80.076856
1076.429	80.239168
1076.604	81.261635
1076.778	81.769298
1076.953	82.499147
1077.127	82.531243
1077.302	82.170174
1077.477	81.688793
1077.651	81.055837
1077.826	81.710855
1078.000	82.458646
1078.175	82.805070
1078.349	82.781422
1078.523	82.220621
1078.698	82.369314
1078.872	82.143276
1079.047	81.763457
1079.221	81.881470
1079.395	82.975949
1079.570	82.861757
1079.744	82.305894
1079.918	81.414559
1080.092	80.885965
1080.267	80.676394
1080.441	80.547710
1080.615	80.027689
1080.789	80.047939
1080.963	80.612478
1081.137	80.767363
1081.312	79.479799
1081.486	79.340632
1081.660	79.385959
1081.834	79.340819
1082.008	79.478005
1082.182	79.432337
1082.356	79.836234
1082.530	80.012221
1082.704	79.406463
1082.878	78.665169
1083.052	78.263982
1083.226	79.086194
1083.400	79.291431
1083.573	78.923811
1083.747	79.385901
1083.921	78.934170
1084.095	78.026972
1084.269	77.385742
1084.443	77.352064
1084.616	77.955604
1084.790	78.983282
1084.964	79.432036
1085.138	79.153473
1085.311	78.591615
1085.485	78.561874
1085.659	78.334579
1085.832	79.231611
1086.006	80.224608
1086.179	80.053115
1086.353	79.649081
1086.527	79.167134
1086.700	78.455295
1086.874	78.174932
1087.047	77.521007
1087.221	77.216983
1087.394	77.518341
1087.568	77.382450
1087.741	77.399146
1087.914	77.437876
1088.088	78.163374
1088.261	78.614328
1088.435	78.996607
1088.608	78.653904
1088.781	78.638566
1088.954	79.282512
1089.128	79.599714
1089.301	79.307198
1089.474	79.641286
1089.647	79.402947
1089.821	79.095216
1089.994	78.707777
1090.167	78.843935
1090.340	79.258836
1090.513	79.187787
1090.686	78.904896
1090.859	78.759314
1091.032	78.952040
1091.206	78.872584
1091.379	78.606329
1091.552	78.148421
1091.725	77.768594
1091.898	77.943167
1092.071	77.887526
1092.244	76.485931
1092.416	76.213129
1092.589	75.840478
1092.762	75.372174
1092.935	75.206147
1093.108	75.163333
1093.281	75.117003
1093.453	75.251072
1093.626	75.346907
1093.799	75.009476
1093.972	74.516293
1094.145	75.090904
1094.317	75.131203
1094.490	75.570844
1094.663	75.318257
1094.835	74.416940
1095.008	74.162897
1095.181	73.757604
1095.353	73.398096
1095.526	73.593999
1095.698	73.900834
1095.871	74.114709
1096.043	74.142146
1096.216	74.033629
1096.388	73.912417
1096.561	74.224574
1096.733	74.468751
1096.906	74.680466
1097.078	75.113324
1097.250	75.320916
1097.423	75.454489
1097.595	75.257877
1097.768	74.965784
1097.940	74.898958
1098.112	75.003786
1098.284	74.944919
1098.457	74.997326
1098.629	75.795358
1098.801	75.387145
1098.973	74.639327
1099.146	74.498537
1099.318	74.007644
1099.490	73.661423
1099.662	73.974423
1099.834	73.495566
1100.006	72.955703
1100.178	72.627441
1100.350	72.247608
1100.522	71.837587
1100.694	71.789408
1100.866	71.588437
1101.038	71.514380
1101.210	71.104913
1101.382	71.144792
1101.554	70.507359
1101.726	70.787442
1101.898	70.568469
1102.070	70.308748
1102.241	70.534128
1102.413	70.468203
1102.585	70.272646
1102.757	70.576340
1102.929	70.678626
1103.100	70.500065
1103.272	69.950113
1103.444	69.900369
1103.616	69.790494
1103.787	69.777241
1103.959	69.463353
1104.130	68.902338
1104.302	68.664195
1104.474	68.859641
1104.645	68.258919
1104.817	67.424513
1104.988	67.406639
1105.160	67.635443
1105.331	67.522543
1105.503	67.035208
1105.674	67.376259
1105.846	67.963313
1106.017	68.294819
1106.189	68.052105
1106.360	67.322125
1106.531	67.900030
1106.703	68.520678
1106.874	68.404860
1107.045	68.665139
1107.217	68.634094
1107.388	68.451622
1107.559	68.322337
1107.730	67.566910
1107.902	67.539737
1108.073	68.091007
1108.244	68.864602
1108.415	68.645952
1108.586	68.134696
1108.757	67.779397
1108.929	66.684330
1109.100	65.982583
1109.271	65.943715
1109.442	65.673834
1109.613	66.189424
1109.784	65.884178
1109.955	65.498852
1110.126	64.743290
1110.297	64.279014
1110.468	64.492887
1110.639	65.101436
1110.809	66.012674
1110.980	66.824402
1111.151	66.878105
1111.322	67.480396
1111.493	67.392921
1111.664	67.330609
1111.834	67.239068
1112.005	67.538977
1112.176	68.072976
1112.347	67.824699
1112.517	67.503675
1112.688	66.548480
1112.859	66.022010
1113.029	66.290868
1113.200	65.747184
1113.371	65.553960
1113.541	65.228791
1113.712	64.909516
1113.882	64.504740
1114.053	64.191972
1114.223	64.390318
1114.394	64.544543
1114.564	64.994295
1114.735	65.101105
1114.905	64.710015
1115.076	64.381706
1115.246	64.539077
1115.416	64.692313
1115.587	64.585449
1115.757	64.526082
1115.927	64.447147
1116.098	64.040766
1116.268	63.422153
1116.438	63.270024
1116.609	63.176670
1116.779	63.324895
1116.949	63.500644
1117.119	63.417201
1117.289	63.108415
1117.459	62.907014
1117.630	63.360353
1117.800	63.470713
1117.970	63.264010
1118.140	63.088218
1118.310	62.716852
1118.480	62.351938
1118.650	61.921472
1118.820	61.479332
1118.990	60.883222
1119.160	60.718138
1119.330	60.467150
1119.500	59.790335
1119.670	59.320522
1119.840	59.618802
1120.010	60.027896
1120.179	60.015190
1120.349	59.833522
1120.519	59.272880
1120.689	58.807107
1120.859	59.205493
1121.028	59.694648
1121.198	59.843331
1121.368	59.945183
1121.538	60.050984
1121.707	59.856687
1121.877	59.703499
1122.047	59.706836
1122.216	59.124908
1122.386	59.325633
1122.555	59.889395
1122.725	59.754970
1122.894	59.215341
1123.064	59.135911
1123.233	58.646958
1123.403	58.566207
1123.573	58.162474
1123.742	57.730498
1123.911	57.284388
1124.081	57.562612
1124.250	57.787599
1124.419	57.980743
1124.589	57.923341
1124.758	58.281368
1124.927	57.852668
1125.097	58.035085
1125.266	57.567076
1125.435	56.984365
1125.605	56.820010
1125.774	56.939590
1125.943	57.168261
1126.112	56.904070
1126.281	56.404275
1126.450	56.054499
1126.620	55.615827
1126.789	55.740408
1126.958	55.906131
1127.127	55.995365
1127.296	56.452486
1127.465	56.643689
1127.634	56.591549
1127.803	56.390969
1127.972	56.449987
1128.141	56.215713
1128.310	56.214818
1128.479	56.149500
1128.648	55.756236
1128.817	55.076215
1128.985	54.637921
1129.154	54.342645
1129.323	54.129147
1129.492	54.369928
1129.661	54.275411
1129.829	54.162468
1129.998	54.095308
1130.167	53.896067
1130.336	53.589256
1130.504	53.767495
1130.673	54.494538
1130.842	54.486973
1131.010	54.364423
1131.179	54.183803
1131.347	53.667679
1131.516	53.646863
1131.685	53.504128
1131.853	53.088253
1132.022	52.406467
1132.190	52.157985
1132.359	51.744162
1132.527	51.128036
1132.696	51.373175
1132.864	51.955990
1133.032	51.598491
1133.201	51.442498
1133.369	51.047463
1133.537	50.471173
1133.706	50.648343
1133.874	51.032483
1134.042	50.681909
1134.211	50.583972
1134.379	50.408895
1134.547	50.395630
1134.715	49.518812
1134.884	49.490073
1135.052	49.542063
1135.220	49.535566
1135.388	49.932105
1135.556	49.684282
1135.724	49.345171
1135.892	49.423078
1136.060	49.545884
1136.228	49.643863
1136.396	49.330199
1136.564	49.188060
1136.732	48.992230
1136.900	48.649579
1137.068	48.772779
1137.236	48.332413
1137.404	48.187434
1137.572	48.179013
1137.740	48.050135
1137.908	47.791296
1138.076	47.330673
1138.243	46.991050
1138.411	46.866671
1138.579	46.836248
1138.747	46.621366
1138.914	45.932666
1139.082	45.691156
1139.250	45.459759
1139.417	45.566811
1139.585	45.551436
1139.753	45.814114
1139.920	45.971671
1140.088	46.127643
1140.256	46.381542
1140.423	46.577095
1140.591	46.529909
1140.758	46.654580
1140.926	46.568079
1141.093	47.027404
1141.261	47.188014
1141.428	47.045882
1141.596	46.522730
1141.763	46.106653
1141.930	45.929012
1142.098	46.221726
1142.265	46.024340
1142.432	46.202302
1142.600	46.349378
1142.767	46.647000
1142.934	46.291325
1143.102	45.603265
1143.269	45.468045
1143.436	45.689407
1143.603	45.428799
1143.771	44.850287
1143.938	44.146092
1144.105	43.726084
1144.272	43.347066
1144.439	42.932334
1144.606	42.891753
1144.773	43.066108
1144.940	42.871289
1145.107	42.790302
1145.274	42.589946
1145.441	42.766461
1145.608	42.961657
1145.775	43.080207
1145.942	43.429716
1146.109	43.654227
1146.276	43.766420
1146.443	43.457709
1146.610	43.004266
1146.776	43.043057
1146.943	42.578375
1147.110	41.702505
1147.277	41.840342
1147.444	41.966204
1147.610	41.694061
1147.777	41.163578
1147.944	40.757597
1148.110	40.526276
1148.277	40.377080
1148.444	40.281191
1148.610	40.177314
1148.777	40.289464
1148.944	40.895018
1149.110	40.840783
1149.277	40.307907
1149.443	40.008512
1149.610	40.064710
1149.776	40.423452
1149.943	40.881227
1150.109	40.784124
1150.276	40.636854
1150.442	41.125440
1150.608	41.367151
1150.775	42.061279
1150.941	41.740673
1151.107	41.893932
1151.274	42.077152
1151.440	41.866449
1151.606	41.246815
1151.773	40.556468
1151.939	40.199832
1152.105	40.372133
1152.271	39.886934
1152.438	39.582292
1152.604	38.613752
1152.770	38.703330
1152.936	38.958773
1153.102	38.763468
1153.268	38.418917
1153.434	38.287882
1153.600	38.483227
1153.766	39.061658
1153.932	38.792761
1154.098	38.555337
1154.264	38.325730
1154.430	38.517006
1154.596	38.388857
1154.762	38.115257
1154.928	37.820959
1155.094	38.164093
1155.260	38.303306
1155.426	37.955203
1155.591	37.428885
1155.757	37.399527
1155.923	37.053631
1156.089	37.391823
1156.255	36.975420
1156.420	36.445800
1156.586	36.446154
1156.752	36.718217
1156.917	36.436027
1157.083	35.897497
1157.249	35.733904
1157.414	35.154109
1157.580	34.522176
1157.745	34.448723
1157.911	34.214646
1158.076	34.092898
1158.242	34.449733
1158.407	34.133347
1158.573	34.077673
1158.738	34.197471
1158.904	34.417222
1159.069	34.244623
1159.235	34.380467
1159.400	34.341089
1159.565	34.666617
1159.731	34.519191
1159.896	34.157093
1160.061	33.752841
1160.227	33.713055
1160.392	32.991044
1160.557	32.523889
1160.722	32.317372
1160.888	32.435928
1161.053	32.518618
1161.218	32.466757
1161.383	32.124462
1161.548	31.851266
1161.713	31.381489
1161.878	31.262597
1162.043	30.994175
1162.208	31.425563
1162.374	31.631227
1162.539	31.308891
1162.704	31.021598
1162.869	31.124249
1163.033	31.447657
1163.198	31.237848
1163.363	31.099483
1163.528	32.025948
1163.693	32.155781
1163.858	32.605355
1164.023	32.175486
1164.188	31.804667
1164.353	32.148915
1164.517	32.372256
1164.682	32.038242
1164.847	31.363142
1165.011	31.732259
1165.176	32.023683
1165.341	31.291022
1165.506	31.028982
1165.670	30.531955
1165.835	30.640394
1166.000	30.843996
1166.164	30.372769
1166.329	29.986533
1166.493	30.079734
1166.658	30.731133
1166.822	30.645582
1166.987	30.378843
1167.151	30.655730
1167.316	30.841916
1167.480	30.501109
1167.645	30.100695
1167.809	29.592136
1167.973	29.922826
1168.138	30.163625
1168.302	30.055720
1168.466	29.435262
1168.631	28.619992
1168.795	28.536816
1168.959	28.707074
1169.124	28.938941
1169.288	29.174231
1169.452	29.361658
1169.616	29.629796
1169.780	29.500379
1169.944	29.307107
1170.109	29.479373
1170.273	29.476047
1170.437	29.471673
1170.601	29.298371
1170.765	28.875782
1170.929	28.208836
1171.093	27.870056
1171.257	27.704100
1171.421	27.358546
1171.585	27.179004
1171.749	26.773462
1171.913	26.150354
1172.077	26.235979
1172.240	26.689666
1172.404	26.930705
1172.568	26.913309
1172.732	26.887122
1172.896	26.798187
1173.060	26.957346
1173.223	27.530760
1173.387	27.717042
1173.551	27.656635
1173.715	27.793639
1173.878	27.894562
1174.042	27.618560
1174.206	27.353632
1174.369	27.726919
1174.533	27.848304
1174.696	27.756592
1174.860	27.368887
1175.023	26.405904
1175.187	25.971904
1175.351	25.717551
1175.514	25.575607
1175.677	25.419375
1175.841	25.137249
1176.004	24.781382
1176.168	24.156017
1176.331	23.981463
1176.495	24.268059
1176.658	24.450240
1176.821	24.916899
1176.985	24.922256
1177.148	25.141461
1177.311	24.997731
1177.474	24.639698
1177.638	24.820905
1177.801	24.866764
1177.964	24.840279
1178.127	24.771488
1178.291	24.120175
1178.454	23.970616
1178.617	23.738046
1178.780	23.418897
1178.943	23.372327
1179.106	23.567394
1179.269	23.941817
1179.432	23.849564
1179.595	23.905954
1179.758	23.660273
1179.921	23.369563
1180.084	23.743711
1180.247	23.716332
1180.410	23.651342
1180.573	24.158151
1180.736	24.040402
1180.899	23.651920
1181.061	23.234115
1181.224	22.980814
1181.387	22.807324
1181.550	23.217942
1181.713	23.107891
1181.875	22.518572
1182.038	22.478272
1182.201	22.551269
1182.363	22.305486
1182.526	22.752013
1182.689	22.917738
1182.851	23.028965
1183.014	23.202722
1183.177	23.182992
1183.339	23.107261
1183.502	23.357797
1183.664	23.653142
1183.827	23.948960
1183.989	24.006239
1184.152	24.219370
1184.314	23.671178
1184.477	23.499469
1184.639	23.340016
1184.801	23.409350
1184.964	23.351102
1185.126	23.036242
1185.288	22.935226
1185.451	22.813568
1185.613	22.519970
1185.775	22.271357
1185.938	22.249892
1186.100	22.304782
1186.262	22.416365
1186.424	22.694080
1186.586	22.370488
1186.749	22.262992
1186.911	22.447776
1187.073	22.374562
1187.235	22.543782
1187.397	22.156477
1187.559	22.224854
1187.721	21.654151
1187.883	21.952882
1188.045	21.981585
1188.207	21.443380
1188.369	21.342126
1188.531	21.233429
1188.693	20.917971
1188.855	21.093612
1189.017	21.155092
1189.179	21.429466
1189.341	21.589258
1189.502	21.856727
1189.664	21.392811
1189.826	21.010972
1189.988	21.496738
1190.150	21.813667
1190.311	21.963497
1190.473	22.403732
1190.635	21.974734
1190.796	21.666362
1190.958	21.684619
1191.120	21.443239
1191.281	21.303049
1191.443	21.748721
1191.604	21.834999
1191.766	21.472242
1191.928	21.263495
1192.089	21.166587
1192.251	20.877722
1192.412	21.178694
1192.574	21.110844
1192.735	20.923178
1192.896	21.054182
1193.058	20.913975
1193.219	20.452036
1193.381	20.400605
1193.542	20.881782
1193.703	21.284698
1193.865	21.521817
1194.026	21.557118
1194.187	21.617385
1194.349	22.030584
1194.510	22.483370
1194.671	22.348443
1194.832	22.288024
1194.993	22.514561
1195.155	22.511411
1195.316	22.071764
1195.477	21.763389
1195.638	21.496470
1195.799	21.070623
1195.960	20.476205
1196.121	20.203289
1196.282	20.546255
1196.443	20.639829
1196.604	20.618040
1196.765	20.463640
1196.926	20.714642
1197.087	20.878563
1197.248	21.114438
1197.409	21.327770
1197.570	21.478074
1197.730	21.862679
1197.891	21.759146
1198.052	20.948112
1198.213	21.080525
1198.374	21.377041
1198.534	21.483498
1198.695	21.313778
1198.856	20.918705
1199.016	20.789655
1199.177	20.757176
1199.338	21.118065
1199.498	21.011685
1199.659	21.087108
1199.820	21.072496
1199.980	20.699106
1200.141	20.507535
1200.301	20.699415
1200.462	21.000640
1200.622	21.464932
1200.783	21.714217
1200.943	21.588786
1201.104	21.156633
1201.264	21.193997
1201.424	21.308504
1201.585	21.585354
1201.745	21.848539
1201.906	22.189552
1202.066	21.526926
1202.226	21.267310
1202.386	21.120323
1202.547	20.639827
1202.707	20.873582
1202.867	21.629458
1203.027	22.056954
1203.188	22.062684
1203.348	21.980166
1203.508	22.075053
1203.668	22.014386
1203.828	22.609955
1203.988	22.477658
1204.148	22.219684
1204.308	22.336715
1204.468	22.230365
1204.628	21.428300
1204.788	21.142853
1204.948	21.095264
1205.108	21.080203
1205.268	20.778866
1205.428	20.439159
1205.588	20.128890
1205.748	20.734287
1205.908	21.540409
1206.068	21.372123
1206.228	21.117072
1206.387	21.685921
1206.547	21.751661
1206.707	21.944503
1206.867	22.170622
1207.026	22.482330
1207.186	22.668450
1207.346	22.841468
1207.505	22.759629
1207.665	22.549009
1207.825	23.230419
1207.984	23.641106
1208.144	23.529540
1208.303	23.705121
1208.463	23.635671
1208.622	23.382277
1208.782	23.209960
1208.941	23.350512
1209.101	23.516335
1209.260	23.381170
1209.420	23.562390
1209.579	23.160920
1209.739	23.093588
1209.898	23.101567
1210.057	23.138166
1210.217	22.803160
1210.376	22.848719
1210.535	23.195814
1210.694	23.577596
1210.854	23.791185
1211.013	24.133539
1211.172	24.074271
1211.331	24.056268
1211.490	24.087584
1211.650	24.270088
1211.809	24.565591
1211.968	25.282409
1212.127	25.880800
1212.286	25.718076
1212.445	25.779416
1212.604	25.945199
1212.763	25.988422
1212.922	26.432229
1213.081	27.128174
1213.240	27.374535
1213.399	27.520061
1213.558	27.398272
1213.717	27.298238
1213.876	26.868838
1214.035	27.270260
1214.194	27.022746
1214.352	26.897539
1214.511	26.820377
1214.670	26.043332
1214.829	25.587500
1214.988	25.497365
1215.146	25.236100
1215.305	24.987644
1215.464	24.908019
1215.622	24.989206
1215.781	24.495551
1215.940	24.639960
1216.098	24.582225
1216.257	24.406969
1216.415	24.785361
1216.574	24.662827
1216.732	24.960364
1216.891	25.333382
1217.049	25.683333
1217.208	26.179629
1217.366	26.580917
1217.525	27.362260
1217.683	27.708914
1217.842	27.593678
1218.000	27.589672
1218.158	27.753507
1218.317	27.778336
1218.475	27.603288
1218.633	27.684081
1218.792	27.482190
1218.950	26.921827
1219.108	26.596880
1219.266	26.516884
1219.425	26.470323
1219.583	26.729829
1219.741	27.321069
1219.899	27.182507
1220.057	27.485063
1220.215	27.280942
1220.373	27.042597
1220.531	27.513714
1220.689	27.946195
1220.847	27.807856
1221.005	27.387726
1221.163	27.081052
1221.322	26.940090
1221.479	26.548477
1221.637	26.353155
1221.795	25.919672
1221.953	26.306634
1222.111	26.410403
1222.269	25.979258
1222.427	25.825940
1222.584	26.250420
1222.742	26.619811
1222.900	26.896563
1223.058	27.263062
1223.216	27.582547
1223.373	28.034806
1223.531	28.505078
1223.689	28.648374
1223.846	28.859511
1224.004	28.849335
1224.162	28.564597
1224.319	28.068380
1224.477	27.309471
1224.634	27.080152
1224.792	26.954638
1224.949	26.676643
1225.107	26.380614
1225.264	26.600446
1225.422	26.367980
1225.579	26.234039
1225.737	26.762018
1225.894	27.054733
1226.052	27.393369
1226.209	27.754898
1226.366	28.166891
1226.523	28.423029
1226.681	28.652249
1226.838	29.052491
1226.995	29.284020
1227.153	29.632811
1227.310	29.556240
1227.467	29.533215
1227.624	29.886425
1227.781	30.461850
1227.938	30.695732
1228.096	30.894009
1228.253	31.155540
1228.410	31.225039
1228.567	31.085581
1228.724	30.634635
1228.881	30.366337
1229.038	30.351486
1229.195	30.202038
1229.352	30.201500
1229.509	29.587786
1229.666	29.576896
1229.823	29.733378
1229.980	29.628454
1230.136	29.398637
1230.293	29.281575
1230.450	29.542239
1230.607	29.869061
1230.764	29.819773
1230.921	30.008041
1231.077	30.484445
1231.234	30.932835
1231.391	31.233638
1231.547	30.870019
1231.704	30.723736
1231.861	30.986576
1232.018	31.451912
1232.174	31.510521
1232.331	31.214374
1232.487	31.611004
1232.644	31.879932
1232.800	31.750974
1232.957	31.560576
1233.113	32.018424
1233.270	32.395631
1233.426	32.803317
1233.583	33.024236
1233.739	33.250918
1233.896	33.725888
1234.052	34.309806
1234.208	34.329652
1234.365	33.869382
1234.521	33.951431
1234.677	34.305083
1234.834	34.442598
1234.990	34.822327
1235.146	34.833201
1235.302	34.611470
1235.459	34.352143
1235.615	34.383997
1235.771	34.132434
1235.927	34.289738
1236.083	34.637207
1236.239	34.677643
1236.396	34.922066
1236.552	34.426543
1236.708	33.522779
1236.864	33.301683
1237.020	33.377446
1237.176	33.423871
1237.332	33.402110
1237.488	33.621637
1237.644	33.706695
1237.799	33.777293
1237.955	33.210489
1238.111	33.017149
1238.267	33.394201
1238.423	33.684270
1238.579	33.438285
1238.734	33.697963
1238.890	34.021967
1239.046	34.219699
1239.202	34.236157
1239.357	34.287804
1239.513	34.735294
1239.669	35.544369
1239.824	35.748600
1239.980	35.812609
1240.136	35.863071
1240.291	36.234633
1240.447	36.015908
1240.603	35.994615
1240.758	36.015861
1240.914	36.011176
1241.069	36.034794
1241.225	35.540576
1241.380	34.954204
1241.535	34.953320
1241.691	34.938524
1241.846	35.459205
1242.002	35.848191
1242.157	36.460352
1242.313	36.217260
1242.468	35.954489
1242.623	36.408965
1242.778	37.046923
1242.934	37.968173
1243.089	38.173514
1243.244	38.137833
1243.399	38.040018
1243.554	37.696049
1243.710	37.611505
1243.865	37.620010
1244.020	37.836971
1244.175	38.656303
1244.330	38.782995
1244.485	38.082461
1244.640	37.214230
1244.795	37.645393
1244.950	38.014603
1245.105	38.371375
1245.260	38.790575
1245.415	39.202516
1245.570	39.498298
1245.725	39.721440
1245.880	39.063912
1246.035	38.804925
1246.190	39.459117
1246.345	40.403648
1246.499	40.830405
1246.654	40.937423
1246.809	40.812648
1246.964	40.202029
1247.118	39.259958
1247.273	38.636279
1247.428	38.562243
1247.583	38.695512
1247.737	39.094807
1247.892	39.121747
1248.047	39.012836
1248.201	38.448603
1248.356	38.470705
1248.510	38.304466
1248.665	38.835332
1248.819	39.604911
1248.974	40.432218
1249.128	41.447196
1249.283	41.411005
1249.437	41.617811
1249.592	41.649625
1249.746	41.062097
1249.900	41.480932
1250.055	41.274117
1250.209	41.949682
1250.363	42.452414
1250.518	42.560699
1250.672	42.196393
1250.826	41.881417
1250.981	42.192247
1251.135	41.778245
1251.289	41.580300
1251.443	41.952015
1251.597	42.186237
1251.751	42.963733
1251.906	42.739853
1252.060	42.615374
1252.214	42.863068
1252.368	43.328607
1252.522	42.916785
1252.676	43.109910
1252.830	43.557865
1252.984	44.222544
1253.138	44.616446
1253.292	44.218435
1253.446	43.453790
1253.600	43.361488
1253.754	43.745101
1253.907	42.856515
1254.061	42.592941
1254.215	42.613489
1254.369	42.551526
1254.523	42.340014
1254.677	41.983747
1254.830	41.798728
1254.984	41.998688
1255.138	41.968224
1255.292	42.446205
1255.445	42.209353
1255.599	43.259512
1255.752	43.748326
1255.906	44.293510
1256.060	44.839980
1256.213	45.463293
1256.367	45.959069
1256.520	46.311067
1256.674	46.855641
1256.827	47.486739
1256.981	47.342594
1257.134	47.663155
1257.288	47.716733
1257.441	47.028746
1257.594	47.259188
1257.748	46.924166
1257.901	46.753037
1258.055	46.736088
1258.208	46.905843
1258.361	46.341157
1258.515	46.247329
1258.668	46.596431
1258.821	46.722276
1258.974	46.198361
1259.127	47.374591
1259.281	47.647505
1259.434	48.153066
1259.587	48.843082
1259.740	49.150427
1259.893	49.197414
1260.046	49.683769
1260.199	50.114806
1260.352	49.982333
1260.505	49.546496
1260.658	49.860259
1260.811	48.913944
1260.964	48.544754
1261.117	47.979186
1261.270	46.682934
1261.423	46.319097
1261.576	46.241123
1261.729	46.033047
1261.882	45.791266
1262.035	45.721482
1262.188	46.715672
1262.340	47.177234
1262.493	48.135210
1262.646	48.527888
1262.798	48.723417
1262.951	50.588740
1263.104	51.453546
1263.257	51.325709
1263.409	51.272857
1263.562	51.165183
1263.714	51.804990
1263.867	50.781024
1264.020	51.427463
1264.172	51.756375
1264.325	50.901475
1264.477	50.410496
1264.630	49.324957
1264.782	49.432882
1264.935	49.919397
1265.087	50.616183
1265.240	50.844845
1265.392	50.937075
1265.544	52.383312
1265.697	51.727056
1265.849	50.634067
1266.001	51.806908
1266.154	52.405480
1266.306	52.099699
1266.458	51.090382
1266.610	50.743146
1266.762	50.570786
1266.915	51.213493
1267.067	50.978837
1267.219	50.540481
1267.371	50.458289
1267.523	50.319620
1267.675	49.784245
1267.828	50.067185
1267.979	49.549855
1268.132	49.168977
1268.284	49.215415
1268.436	49.200672
1268.588	48.700006
1268.740	48.581253
1268.891	47.750888
1269.043	47.985392
1269.195	48.293969
1269.347	48.445598
1269.499	48.704736
1269.651	50.198408
1269.803	51.160595
1269.955	51.009066
1270.106	51.043246
1270.258	51.128132
1270.410	52.322618
1270.562	53.447160
1270.713	53.931441
1270.865	54.549757
1271.017	54.835157
1271.168	53.706690
1271.320	53.259484
1271.471	53.661428
1271.623	54.100539
1271.775	53.962569
1271.926	54.298654
1272.078	53.798790
1272.229	53.970102
1272.381	53.526878
1272.532	53.294792
1272.684	52.319643
1272.835	53.462849
1272.986	53.219212
1273.138	52.090889
1273.289	50.851830
1273.440	50.335255
1273.592	49.335044
1273.743	49.422777
1273.894	48.658828
1274.046	48.946183
1274.197	48.739851
1274.348	48.840909
1274.500	47.788140
1274.651	47.535339
1274.802	48.158087
>>>>>>>>>> END of Data <<<<<<<<<<
