Date	2025年07月03日木曜日 09時54分20秒
Spectrometers	SR401765
ダーク	使用
リファレンス	使用
積分時間[msec]	300
平均回数	1
ｽﾑｰｼﾞﾝｸﾞ	5
Electrical Dark	USE
ピクセル数	3648
計測モード	反射率
保存開始波長[nm]	598.495
保存終了波長[nm]	1274.802
保存ﾋﾟｯﾁ波長[nm]	全波長

>>>>>>>>>> Data Start <<<<<<<<<<<<
598.495	-462.870799
598.713	-462.870799
598.931	-462.870799
599.148	-462.870799
599.366	0.000000
599.584	0.000000
599.802	-2911.857649
600.020	7.213046
600.238	72.609716
600.455	134.823890
600.673	86.229459
600.891	32.303351
601.109	31.733050
601.326	31.305554
601.544	30.940488
601.762	30.780050
601.979	30.812060
602.197	30.898053
602.415	30.972319
602.632	31.023780
602.850	31.065885
603.067	31.279225
603.285	31.456239
603.502	31.636733
603.720	31.846988
603.938	32.142727
604.155	32.484231
604.372	32.572645
604.590	32.650016
604.807	32.763460
605.025	32.864784
605.242	33.051994
605.460	33.085072
605.677	33.150489
605.894	33.149638
606.112	33.265002
606.329	33.530758
606.546	33.702278
606.764	34.229478
606.981	34.597634
607.198	34.742440
607.415	34.899984
607.633	35.100778
607.850	35.328666
608.067	35.494344
608.284	35.752450
608.501	35.958732
608.718	35.998559
608.935	36.046155
609.153	36.157625
609.370	36.305141
609.587	36.484123
609.804	36.675499
610.021	36.809246
610.238	36.939535
610.455	36.969495
610.672	36.993764
610.889	37.043960
611.106	37.249921
611.323	37.447077
611.540	37.587743
611.756	37.730204
611.973	37.727125
612.190	37.834426
612.407	37.979325
612.624	38.200931
612.841	38.588693
613.057	38.788789
613.274	38.963267
613.491	39.278210
613.708	39.774065
613.925	39.966743
614.141	39.977567
614.358	40.323744
614.575	40.629375
614.791	40.884909
615.008	41.133664
615.225	41.375566
615.441	41.762608
615.658	42.116214
615.874	42.147034
616.091	42.089895
616.307	42.300572
616.524	42.778978
616.740	43.020039
616.957	43.131197
617.173	43.330753
617.390	43.578374
617.606	43.796766
617.823	43.959303
618.039	44.204818
618.256	44.638105
618.472	45.045518
618.688	45.322095
618.905	45.425850
619.121	45.690410
619.337	46.037257
619.554	46.247954
619.770	46.286155
619.986	46.427197
620.202	46.698964
620.419	46.975411
620.635	47.161852
620.851	47.284421
621.067	47.449211
621.283	47.622576
621.499	47.685736
621.716	47.635145
621.932	47.702107
622.148	47.886671
622.364	47.965192
622.580	47.943082
622.796	47.890042
623.012	47.860400
623.228	47.898799
623.444	47.858481
623.660	47.929605
623.876	48.183937
624.092	48.681221
624.308	49.129044
624.524	49.481555
624.740	49.864013
624.955	50.215320
625.171	50.513839
625.387	50.693326
625.603	50.977922
625.819	51.242231
626.034	51.464635
626.250	51.616275
626.466	51.571517
626.682	51.451233
626.897	51.404845
627.113	51.463545
627.329	51.573548
627.544	51.763947
627.760	52.125135
627.976	52.284446
628.191	52.607411
628.407	53.122785
628.623	53.549182
628.838	53.968095
629.054	54.506013
629.269	54.985234
629.485	55.301306
629.700	55.676054
629.916	55.992747
630.131	56.188219
630.347	56.391940
630.562	56.530211
630.777	56.391798
630.993	56.433563
631.208	56.462518
631.424	56.495094
631.639	56.697446
631.854	56.779753
632.070	56.741175
632.285	56.778886
632.500	56.873092
632.715	56.977163
632.931	57.062803
633.146	57.174690
633.361	57.272105
633.576	57.516078
633.791	57.652337
634.007	57.694076
634.222	57.842316
634.437	57.947228
634.652	58.132167
634.867	58.346151
635.082	58.801635
635.297	59.222083
635.512	59.545552
635.727	59.698722
635.942	59.830580
636.157	59.976569
636.372	60.092775
636.587	60.194672
636.802	60.430934
637.017	60.662937
637.232	60.846987
637.447	60.832031
637.662	60.848445
637.876	61.148951
638.091	61.414614
638.306	61.586725
638.521	61.698277
638.736	61.760205
638.951	61.937589
639.165	62.131484
639.380	62.149682
639.595	62.129429
639.809	62.010883
640.024	61.956734
640.239	61.956166
640.453	62.078016
640.668	62.256691
640.883	62.544956
641.097	62.834997
641.312	63.074583
641.526	63.317134
641.741	63.518730
641.955	63.601598
642.170	63.751287
642.384	63.896380
642.599	63.969720
642.813	64.063521
643.028	64.150729
643.242	64.206205
643.457	64.302180
643.671	64.495247
643.885	64.602624
644.100	64.681406
644.314	64.930485
644.528	65.292900
644.743	65.482926
644.957	65.509182
645.171	65.692004
645.386	65.802663
645.600	65.980151
645.814	66.119954
646.028	66.167895
646.242	66.114416
646.457	65.990477
646.671	65.838610
646.885	65.873999
647.099	66.114128
647.313	66.473044
647.527	66.595978
647.741	66.741200
647.955	66.870219
648.169	67.101375
648.383	67.240655
648.597	67.485639
648.811	67.808412
649.025	68.158804
649.239	68.294695
649.453	68.371597
649.667	68.333672
649.881	68.549125
650.095	68.703827
650.309	68.614523
650.523	68.528028
650.737	68.652333
650.950	68.864776
651.164	69.241192
651.378	69.428202
651.592	69.386402
651.805	69.343595
652.019	69.370585
652.233	69.384361
652.447	69.464824
652.660	69.677200
652.874	69.956799
653.088	70.052254
653.301	69.936415
653.515	69.617818
653.728	69.480214
653.942	69.521004
654.156	69.601841
654.369	69.734107
654.583	69.678146
654.796	69.861870
655.010	70.143134
655.223	70.199108
655.437	70.197830
655.650	70.272142
655.863	70.383865
656.077	70.489328
656.290	70.675151
656.504	70.762384
656.717	70.731629
656.930	70.813689
657.144	70.747474
657.357	70.762781
657.570	71.018226
657.783	71.142553
657.997	71.098667
658.210	71.235965
658.423	71.350434
658.636	71.415172
658.849	71.572015
659.063	71.829117
659.276	72.021525
659.489	72.048477
659.702	72.141011
659.915	72.161176
660.128	72.163600
660.341	72.425416
660.554	72.634853
660.767	72.856948
660.980	73.164383
661.193	73.367695
661.406	73.582978
661.619	73.853194
661.832	74.071481
662.045	74.063203
662.258	73.945677
662.471	74.183403
662.684	74.333187
662.897	74.244034
663.110	73.958658
663.322	73.699220
663.535	73.550493
663.748	73.393627
663.961	73.343677
664.174	73.269996
664.386	73.090149
664.599	73.080761
664.812	72.902003
665.024	72.633506
665.237	72.469921
665.450	72.715823
665.662	73.035374
665.875	73.136983
666.088	73.197331
666.300	73.103460
666.513	73.231410
666.725	73.573204
666.938	73.632490
667.150	73.557242
667.363	73.718155
667.575	74.019536
667.788	74.147091
668.000	74.147106
668.213	74.248153
668.425	74.248999
668.638	74.171790
668.850	73.923385
669.062	73.661847
669.275	73.722350
669.487	73.994406
669.699	74.229887
669.912	74.424358
670.124	74.403280
670.336	74.215399
670.548	74.010360
670.761	73.826919
670.973	73.810660
671.185	73.969891
671.397	74.043724
671.609	74.125030
671.822	74.204364
672.034	74.201506
672.246	74.214452
672.458	74.506490
672.670	74.978525
672.882	75.462406
673.094	75.845482
673.306	76.126877
673.518	76.230934
673.730	76.269842
673.942	76.235921
674.154	76.287698
674.366	76.373251
674.578	76.382484
674.790	76.122178
675.002	75.753170
675.214	75.592211
675.425	75.626475
675.637	75.555097
675.849	75.460960
676.061	75.399114
676.273	75.387704
676.484	75.337010
676.696	75.387655
676.908	75.599054
677.120	75.882858
677.331	76.162547
677.543	76.363284
677.755	76.538749
677.966	76.777200
678.178	77.006952
678.389	77.280727
678.601	77.424065
678.813	77.519217
679.024	77.499502
679.236	77.234524
679.447	76.972451
679.659	76.469747
679.870	75.900894
680.082	75.450271
680.293	74.878493
680.505	74.588174
680.716	74.545876
680.927	74.543053
681.139	74.504372
681.350	74.413313
681.562	74.449364
681.773	74.610691
681.984	75.003595
682.196	75.272326
682.407	75.398914
682.618	75.630330
682.829	75.675086
683.041	75.656564
683.252	76.008664
683.463	76.408563
683.674	76.724304
683.885	76.952201
684.097	76.919741
684.308	76.955377
684.519	76.904447
684.730	76.795444
684.941	76.764254
685.152	76.876526
685.363	77.030031
685.574	76.771287
685.785	76.316626
685.996	76.027004
686.207	75.835380
686.418	75.863203
686.629	76.043685
686.840	76.303049
687.051	76.538956
687.262	76.656758
687.473	76.608455
687.684	76.391784
687.894	76.266787
688.105	76.492962
688.316	76.754967
688.527	76.988305
688.738	77.161838
688.948	77.027441
689.159	76.976152
689.370	77.034943
689.580	77.164618
689.791	77.309422
690.002	77.351285
690.212	77.432321
690.423	77.387245
690.634	77.298732
690.844	77.215777
691.055	77.280415
691.266	77.472218
691.476	77.780287
691.687	78.148427
691.897	78.453731
692.108	78.677372
692.318	78.916891
692.529	78.948323
692.739	78.963455
692.949	79.057271
693.160	79.172503
693.370	79.332194
693.581	79.672928
693.791	80.009656
694.001	80.150851
694.212	80.068022
694.422	79.832209
694.632	79.481884
694.843	79.171293
695.053	79.022646
695.263	78.957430
695.473	78.855069
695.683	78.696030
695.894	78.305123
696.104	77.816740
696.314	77.329104
696.524	77.113340
696.734	77.293614
696.944	77.735841
697.154	78.117123
697.365	78.360849
697.575	78.356377
697.785	78.350628
697.995	78.271496
698.205	78.405743
698.415	78.462190
698.625	78.488182
698.834	78.560573
699.044	78.489373
699.254	78.397275
699.464	78.350382
699.674	78.164110
699.884	77.866019
700.094	77.548297
700.304	77.206867
700.513	76.627500
700.723	76.167079
700.933	75.911750
701.143	75.749907
701.353	75.653619
701.562	75.633052
701.772	75.755537
701.982	76.020591
702.191	76.509710
702.401	77.058850
702.611	77.590353
702.820	77.996252
703.030	78.280312
703.239	78.519755
703.449	78.503941
703.659	78.320476
703.868	78.002574
704.078	77.786621
704.287	77.528096
704.497	77.048811
704.706	76.579775
704.916	76.175092
705.125	76.001691
705.334	75.861834
705.544	75.791122
705.753	75.803441
705.962	75.904236
706.172	75.939112
706.381	75.896363
706.590	75.962357
706.800	76.325450
707.009	76.626335
707.218	76.865120
707.428	76.991537
707.637	77.091482
707.846	77.154860
708.055	77.309935
708.264	77.491695
708.474	77.707380
708.683	77.741976
708.892	77.563296
709.101	77.312785
709.310	77.118711
709.519	76.838030
709.728	76.664697
709.937	76.584703
710.146	76.571119
710.355	76.660678
710.564	76.687293
710.773	76.669972
710.982	76.773098
711.191	76.930586
711.400	76.916152
711.609	76.784847
711.818	76.845722
712.027	76.957100
712.235	77.188489
712.444	77.335080
712.653	77.447604
712.862	77.543978
713.071	77.616221
713.279	77.588147
713.488	77.471518
713.697	77.435239
713.906	77.567703
714.114	77.627572
714.323	77.560006
714.532	77.264150
714.740	76.974482
714.949	76.745206
715.157	76.717121
715.366	76.688716
715.575	76.775829
715.783	76.757296
715.992	76.376657
716.200	75.919576
716.409	75.542933
716.617	75.220076
716.826	75.063198
717.034	74.991629
717.242	74.897744
717.451	74.563136
717.659	74.297112
717.868	73.973810
718.076	73.994095
718.284	74.399570
718.493	74.845438
718.701	75.238917
718.909	75.462809
719.118	75.510180
719.326	75.404709
719.534	75.214252
719.742	75.203449
719.951	75.409152
720.159	75.661066
720.367	75.606349
720.575	75.400406
720.783	75.105656
720.991	74.950066
721.199	75.055262
721.408	75.205906
721.616	75.340082
721.824	75.540869
722.032	75.717034
722.240	75.589042
722.448	75.326895
722.656	75.256224
722.864	75.356350
723.072	75.535818
723.280	75.488027
723.487	75.376267
723.695	75.201501
723.903	75.275186
724.111	75.374740
724.319	75.381548
724.527	75.340579
724.735	75.419340
724.942	75.559068
725.150	75.455148
725.358	75.184109
725.566	75.168417
725.773	75.253207
725.981	75.302558
726.189	75.024840
726.396	74.653871
726.604	74.431980
726.812	74.471968
727.019	74.398252
727.227	74.073105
727.435	74.067385
727.642	74.174393
727.850	73.972876
728.057	73.717049
728.265	73.549088
728.472	73.480841
728.680	73.360819
728.887	73.195458
729.095	73.007708
729.302	72.950175
729.509	72.870079
729.717	72.715653
729.924	72.711656
730.132	72.954549
730.339	72.982697
730.546	73.003292
730.753	73.055031
730.961	73.099772
731.168	72.970194
731.375	72.681285
731.583	72.305617
731.790	72.217163
731.997	72.201374
732.204	72.149240
732.411	71.979767
732.618	71.698382
732.826	71.405734
733.033	71.163079
733.240	70.976719
733.447	70.933299
733.654	71.117341
733.861	71.393204
734.068	71.396514
734.275	71.307234
734.482	71.146640
734.689	70.998145
734.896	71.238210
735.103	71.665906
735.310	72.040269
735.517	72.294245
735.724	72.375945
735.931	72.179199
736.137	71.945007
736.344	71.913706
736.551	71.843832
736.758	71.815301
736.965	71.886544
737.171	71.732325
737.378	71.384512
737.585	70.908260
737.792	70.553377
737.998	70.311852
738.205	70.208839
738.412	70.192662
738.618	70.218012
738.825	70.209051
739.032	70.154736
739.238	69.925709
739.445	69.630618
739.651	69.269492
739.858	69.201575
740.064	69.161254
740.271	69.158497
740.477	69.068673
740.684	68.820033
740.890	68.562993
741.097	68.355087
741.303	68.064834
741.510	67.785723
741.716	67.683699
741.922	67.674163
742.129	67.867319
742.335	68.005550
742.541	67.879033
742.748	67.710362
742.954	67.522367
743.160	67.343261
743.366	67.241862
743.573	67.123984
743.779	66.996617
743.985	66.900867
744.191	66.850616
744.397	66.258280
744.604	65.681255
744.810	65.502954
745.016	65.471443
745.222	65.468881
745.428	65.199244
745.634	64.772800
745.840	64.453176
746.046	64.273476
746.252	64.144649
746.458	64.046456
746.664	64.338594
746.870	64.672054
747.076	64.795739
747.282	64.783254
747.488	64.643075
747.694	64.615307
747.900	64.710255
748.105	64.816026
748.311	64.919266
748.517	64.902562
748.723	64.727009
748.929	64.241047
749.134	63.654313
749.340	63.161091
749.546	62.883369
749.752	62.824350
749.957	62.792434
750.163	62.680797
750.369	62.454323
750.574	62.075440
750.780	61.814830
750.985	61.722832
751.191	61.680267
751.397	61.704579
751.602	61.855629
751.808	61.693759
752.013	61.499591
752.219	61.279326
752.424	61.040027
752.630	61.066182
752.835	61.262205
753.041	61.201894
753.246	61.056580
753.451	60.845672
753.657	60.534516
753.862	60.200492
754.067	59.890214
754.273	59.498269
754.478	59.225199
754.683	59.188521
754.889	58.987823
755.094	58.727725
755.299	58.497776
755.504	58.271378
755.710	58.203685
755.915	58.206974
756.120	57.882464
756.325	57.653801
756.530	57.644748
756.735	57.688423
756.940	57.523835
757.146	57.293933
757.351	56.959531
757.556	56.765075
757.761	56.426677
757.966	55.969384
758.171	55.698076
758.376	55.652957
758.581	55.567707
758.786	55.402990
758.990	55.120942
759.195	54.744565
759.400	54.387502
759.605	54.023460
759.810	53.630746
760.015	53.562535
760.220	53.710557
760.424	53.648075
760.629	53.484080
760.834	53.440797
761.039	53.343185
761.244	53.260565
761.448	53.232996
761.653	53.144329
761.858	53.086454
762.062	53.081565
762.267	52.878421
762.472	52.411461
762.676	51.842230
762.881	51.258795
763.085	50.685681
763.290	49.992032
763.494	49.304158
763.699	48.776409
763.903	48.379712
764.108	47.974690
764.312	47.567877
764.517	47.228441
764.721	47.064409
764.926	47.027961
765.130	47.069345
765.335	46.974071
765.539	47.029893
765.743	47.143053
765.948	47.126786
766.152	46.990722
766.356	46.797283
766.560	46.584983
766.765	46.262144
766.969	45.960671
767.173	45.619352
767.377	45.358354
767.582	45.280037
767.786	45.041390
767.990	44.805198
768.194	44.611939
768.398	44.310703
768.602	44.069720
768.806	43.854541
769.010	43.704303
769.215	43.517357
769.419	43.357781
769.623	42.984025
769.827	42.439855
770.031	42.073781
770.234	41.556091
770.438	40.988416
770.642	40.722660
770.846	40.442098
771.050	40.018418
771.254	39.715909
771.458	39.293519
771.662	38.908431
771.866	38.598162
772.069	38.382546
772.273	38.192757
772.477	37.927397
772.681	37.605348
772.885	37.171553
773.088	36.670476
773.292	36.262884
773.496	35.829218
773.699	35.531527
773.903	35.129054
774.107	34.656533
774.310	34.256883
774.514	33.734602
774.717	33.268029
774.921	32.857986
775.124	32.519506
775.328	32.310126
775.531	32.048669
775.735	31.748385
775.938	31.464153
776.142	31.123528
776.345	30.810757
776.549	30.395199
776.752	29.988704
776.956	29.833387
777.159	29.580651
777.362	29.118138
777.566	28.674666
777.769	28.307171
777.972	27.906713
778.176	27.362486
778.379	26.996993
778.582	26.772820
778.785	26.541881
778.989	26.366088
779.192	25.998318
779.395	25.718253
779.598	25.589368
779.801	25.350800
780.004	25.000927
780.207	24.655562
780.411	24.349730
780.614	24.018774
780.817	23.632930
781.020	23.251059
781.223	22.905319
781.426	22.604946
781.629	22.378437
781.832	22.062410
782.035	21.784352
782.238	21.469515
782.440	21.160267
782.643	20.839454
782.846	20.545965
783.049	20.304263
783.252	20.040445
783.455	19.758584
783.658	19.388831
783.860	18.936228
784.063	18.519907
784.266	18.050349
784.469	17.762173
784.671	17.553629
784.874	17.351350
785.077	17.096308
785.279	16.778766
785.482	16.592081
785.685	16.420805
785.887	16.326319
786.090	16.213054
786.293	16.036758
786.495	15.911436
786.698	15.834677
786.900	15.578252
787.103	15.371182
787.305	15.155507
787.508	15.004885
787.710	14.736997
787.913	14.316277
788.115	13.967419
788.317	13.673454
788.520	13.413154
788.722	13.114353
788.924	12.687042
789.127	12.472335
789.329	12.180424
789.531	11.944949
789.734	11.596449
789.936	11.289906
790.138	11.092675
790.340	10.936421
790.543	10.781005
790.745	10.658117
790.947	10.530571
791.149	10.386747
791.351	10.262800
791.553	10.226514
791.756	10.094385
791.958	10.095803
792.160	10.063457
792.362	10.020294
792.564	9.912074
792.766	9.869559
792.968	9.835788
793.170	9.820442
793.372	9.758787
793.574	9.589846
793.776	9.403870
793.978	9.361974
794.180	9.286381
794.381	9.117388
794.583	8.995625
794.785	8.966562
794.987	8.816787
795.189	8.672742
795.391	8.562270
795.592	8.601231
795.794	8.703157
795.996	8.793349
796.198	8.756186
796.399	8.703579
796.601	8.811588
796.803	8.829103
797.004	8.651128
797.206	8.643276
797.407	8.647432
797.609	8.645380
797.811	8.696128
798.012	8.688433
798.214	8.592469
798.415	8.633305
798.617	8.643604
798.818	8.577095
799.020	8.721450
799.221	8.996876
799.423	9.198191
799.624	9.381585
799.826	9.664297
800.027	9.794567
800.228	9.891672
800.430	10.143788
800.631	10.204670
800.832	10.369623
801.034	10.600449
801.235	10.615543
801.436	10.640013
801.637	10.643840
801.839	10.594149
802.040	10.622258
802.241	10.701741
802.442	10.691156
802.643	10.763001
802.844	10.920047
803.046	10.961030
803.247	11.128631
803.448	11.316515
803.649	11.448614
803.850	11.586849
804.051	11.749205
804.252	11.875132
804.453	12.044021
804.654	12.357662
804.855	12.593109
805.056	12.816113
805.257	13.127925
805.458	13.244017
805.659	13.451238
805.859	13.751790
806.060	14.073054
806.261	14.360612
806.462	14.628004
806.663	14.748446
806.864	14.941035
807.064	15.053436
807.265	15.323543
807.466	15.526540
807.667	15.824812
807.867	16.005424
808.068	16.154987
808.269	16.352649
808.469	16.625754
808.670	16.818320
808.870	17.126157
809.071	17.339359
809.272	17.626021
809.472	17.836562
809.673	18.130576
809.873	18.368077
810.074	18.783781
810.274	19.101454
810.475	19.271713
810.675	19.431695
810.876	19.683380
811.076	19.989892
811.276	20.296402
811.477	20.544300
811.677	20.685454
811.878	20.726855
812.078	20.912927
812.278	21.052268
812.479	21.315010
812.679	21.613575
812.879	21.863310
813.079	22.132939
813.280	22.307638
813.480	22.518234
813.680	22.737121
813.880	22.968662
814.080	23.156503
814.280	23.297268
814.480	23.426106
814.681	23.521052
814.881	23.671884
815.081	23.921986
815.281	24.157763
815.481	24.444338
815.681	24.718226
815.881	24.948118
816.081	25.244104
816.281	25.772189
816.481	26.262751
816.681	26.654991
816.880	27.069521
817.080	27.486903
817.280	27.802907
817.480	28.068753
817.680	28.324452
817.880	28.720076
818.080	29.071733
818.279	29.247258
818.479	29.287297
818.679	29.399878
818.879	29.650214
819.078	29.923735
819.278	30.327215
819.478	30.719659
819.677	31.098206
819.877	31.498196
820.077	31.763035
820.276	32.149715
820.476	32.576288
820.675	32.987320
820.875	33.317981
821.074	33.506970
821.274	33.675182
821.473	33.820500
821.673	34.077554
821.872	34.270698
822.072	34.446921
822.271	34.705327
822.471	34.916368
822.670	35.015208
822.869	35.195742
823.069	35.195609
823.268	35.290638
823.467	35.481655
823.667	35.610031
823.866	35.684353
824.065	35.924460
824.265	36.172851
824.464	36.403248
824.663	36.695132
824.862	37.150795
825.061	37.416829
825.261	37.894594
825.460	38.431722
825.659	38.763258
825.858	38.968270
826.057	39.088046
826.256	39.190112
826.455	39.429049
826.654	39.714692
826.853	40.020060
827.052	40.376099
827.251	40.694939
827.450	40.947183
827.649	41.104882
827.848	41.228109
828.047	41.450847
828.246	41.790015
828.445	42.057703
828.644	42.197697
828.843	42.188815
829.041	42.170296
829.240	42.106039
829.439	42.296211
829.638	42.565435
829.836	42.559975
830.035	42.608912
830.234	42.742197
830.433	42.761542
830.631	42.841292
830.830	42.840489
831.029	42.860632
831.227	42.787550
831.426	42.785515
831.624	42.830728
831.823	42.941172
832.022	43.234313
832.220	43.616360
832.419	43.738858
832.617	43.938956
832.816	44.031879
833.014	44.148734
833.213	44.322633
833.411	44.597899
833.609	44.917918
833.808	45.230513
834.006	45.506297
834.205	45.915551
834.403	46.175574
834.601	46.468825
834.800	46.676369
834.998	47.066246
835.196	47.546417
835.394	47.909704
835.593	48.315290
835.791	48.507537
835.989	48.553584
836.187	48.517172
836.385	48.362419
836.584	48.431021
836.782	48.604177
836.980	49.006437
837.178	49.360866
837.376	49.536426
837.574	49.854689
837.772	50.059496
837.970	50.232368
838.168	50.610732
838.366	50.999728
838.564	51.375682
838.762	51.628294
838.960	51.555868
839.158	51.379287
839.356	51.111842
839.554	51.043349
839.752	50.861456
839.949	50.749962
840.147	50.821950
840.345	50.860067
840.543	50.907557
840.741	51.137792
840.938	51.159734
841.136	51.672025
841.334	52.140601
841.532	52.582019
841.729	52.909324
841.927	53.198181
842.125	53.419319
842.322	53.800502
842.520	54.110300
842.718	54.300695
842.915	54.228786
843.113	54.149198
843.310	54.028690
843.508	53.937892
843.705	53.960040
843.903	54.049956
844.100	54.287783
844.298	54.593529
844.495	54.767357
844.693	54.620279
844.890	54.500382
845.087	54.460915
845.285	54.697517
845.482	54.893734
845.679	55.091419
845.877	55.391071
846.074	55.688143
846.271	55.932989
846.469	56.041235
846.666	56.002642
846.863	56.242521
847.060	56.476371
847.257	56.578648
847.455	56.836190
847.652	57.377269
847.849	57.803044
848.046	57.922753
848.243	57.869192
848.440	57.887935
848.637	57.962988
848.834	58.202414
849.031	58.280915
849.228	58.125836
849.425	57.866646
849.622	57.499191
849.819	57.120533
850.016	57.114906
850.213	57.368833
850.410	57.983029
850.607	58.402895
850.804	58.705708
851.001	58.856601
851.198	59.105428
851.394	59.441485
851.591	60.010575
851.788	60.644079
851.985	60.917874
852.181	60.811251
852.378	60.481892
852.575	59.842810
852.772	59.319097
852.968	59.058562
853.165	58.936562
853.362	58.917081
853.558	59.073275
853.755	59.523334
853.951	59.655714
854.148	59.865564
854.345	60.068524
854.541	60.228283
854.738	60.605256
854.934	60.896037
855.131	61.140754
855.327	61.422487
855.523	61.532607
855.720	61.888794
855.916	62.135490
856.113	62.467809
856.309	62.470150
856.505	62.503063
856.702	62.453082
856.898	62.025014
857.094	61.863912
857.291	62.123071
857.487	62.356019
857.683	62.480007
857.879	62.248129
858.076	61.954185
858.272	61.695417
858.468	61.674015
858.664	61.932976
858.860	62.290760
859.056	62.928366
859.253	63.187456
859.449	62.492103
859.645	61.856724
859.841	61.571299
860.037	61.702874
860.233	61.977189
860.429	62.167929
860.625	62.427214
860.821	62.513980
861.017	62.504499
861.213	62.364518
861.409	62.458946
861.604	63.232766
861.800	63.821515
861.996	64.206125
862.192	64.403935
862.388	64.434653
862.584	64.501143
862.779	64.577605
862.975	64.838041
863.171	65.063023
863.367	65.142030
863.562	65.139840
863.758	64.993840
863.954	65.177322
864.149	65.237669
864.345	64.739153
864.541	64.151617
864.736	63.709573
864.932	63.177224
865.127	62.582227
865.323	62.293997
865.518	62.222851
865.714	62.168003
865.910	61.974864
866.105	61.659501
866.300	61.839337
866.496	62.440740
866.691	62.979868
866.887	63.261730
867.082	63.556317
867.277	63.861288
867.473	63.909362
867.668	64.046508
867.864	64.273126
868.059	64.294313
868.254	64.186534
868.449	64.049161
868.645	64.073399
868.840	64.256354
869.035	64.480627
869.230	64.759427
869.425	64.851024
869.621	65.090427
869.816	65.200670
870.011	65.229808
870.206	65.795225
870.401	66.245056
870.596	66.298451
870.791	66.081621
870.986	65.546920
871.181	65.127599
871.376	64.805320
871.571	64.757195
871.766	64.775855
871.961	64.714607
872.156	64.873391
872.351	65.026941
872.546	65.124437
872.741	65.360506
872.936	65.727914
873.130	66.399428
873.325	66.873702
873.520	67.141796
873.715	67.342177
873.910	67.318979
874.104	67.475145
874.299	67.311545
874.494	66.981802
874.688	66.838804
874.883	66.784292
875.078	66.710330
875.272	66.486610
875.467	66.148765
875.662	65.877684
875.856	65.868036
876.051	66.161340
876.245	66.408228
876.440	66.712815
876.634	67.062243
876.829	67.240918
877.023	67.073961
877.218	66.991730
877.412	67.199691
877.607	67.683749
877.801	68.431107
877.995	68.949274
878.190	69.295248
878.384	69.394498
878.578	69.663351
878.773	69.742812
878.967	69.788348
879.161	70.191088
879.356	70.308133
879.550	70.711052
879.744	71.384936
879.938	71.676347
880.133	71.753901
880.327	71.523452
880.521	71.377759
880.715	71.175838
880.909	70.831964
881.103	70.772225
881.297	70.619555
881.491	70.758615
881.685	70.365502
881.880	69.767206
882.073	69.594686
882.267	69.841512
882.461	70.256051
882.655	70.525695
882.849	70.413908
883.043	70.576727
883.237	70.767282
883.431	70.925695
883.625	71.113520
883.819	71.373749
884.013	71.708008
884.206	71.744947
884.400	71.508808
884.594	71.231816
884.788	71.065666
884.982	71.245123
885.175	71.497579
885.369	71.515505
885.563	71.639567
885.756	71.776962
885.950	71.986872
886.144	72.065253
886.337	72.189069
886.531	72.283718
886.724	72.719792
886.918	73.008334
887.112	73.179764
887.305	72.920312
887.499	72.690405
887.692	72.459445
887.885	72.273367
888.079	72.393250
888.272	72.373437
888.466	72.258481
888.659	72.430894
888.853	72.560074
889.046	72.950274
889.239	73.318897
889.433	73.783269
889.626	74.253114
889.819	74.528122
890.013	74.581382
890.206	74.518443
890.399	74.606339
890.592	74.684940
890.785	74.279966
890.979	73.877634
891.172	73.555194
891.365	73.270611
891.558	73.013863
891.751	72.941783
891.944	72.765611
892.137	72.688759
892.330	72.689619
892.524	72.358548
892.717	72.120887
892.910	72.020827
893.103	71.968678
893.296	71.849710
893.488	71.925681
893.681	72.252839
893.874	72.208022
894.067	72.514478
894.260	72.738492
894.453	72.211266
894.646	72.444774
894.839	72.711939
895.031	72.623217
895.224	72.395584
895.417	72.368456
895.610	72.618563
895.802	72.699812
895.995	72.754102
896.188	72.537981
896.381	72.477329
896.573	72.749744
896.766	72.650508
896.958	72.410133
897.151	72.522971
897.344	72.616997
897.536	72.634533
897.729	72.663489
897.921	72.116344
898.114	71.732769
898.306	71.760080
898.499	71.526801
898.691	71.461376
898.884	71.453601
899.076	71.816137
899.269	72.105850
899.461	72.291279
899.653	72.599773
899.846	72.543451
900.038	72.907030
900.230	73.356614
900.423	73.522224
900.615	73.946672
900.807	74.341768
901.000	74.825996
901.192	74.713554
901.384	74.544443
901.576	74.710411
901.768	74.746124
901.961	74.832250
902.153	74.890369
902.345	74.429906
902.537	74.178660
902.729	74.028137
902.921	74.110032
903.113	73.903867
903.305	73.947692
903.497	74.178459
903.689	74.053188
903.881	73.650468
904.073	73.248937
904.265	72.965684
904.457	73.280602
904.649	73.381571
904.841	73.309373
905.033	73.137751
905.224	72.899155
905.416	72.635997
905.608	72.420470
905.800	72.133156
905.992	72.356114
906.183	72.872468
906.375	73.354635
906.567	74.180228
906.759	74.833899
906.950	75.186456
907.142	75.229762
907.334	75.485973
907.525	75.751845
907.717	75.951445
907.909	76.495315
908.100	76.577652
908.292	76.132418
908.483	75.735864
908.675	75.081294
908.866	74.634665
909.058	74.700592
909.249	75.196200
909.441	75.650689
909.632	75.735141
909.824	75.528872
910.015	75.215028
910.206	75.052047
910.398	74.890348
910.589	74.819385
910.780	74.956249
910.972	75.264845
911.163	75.198385
911.354	74.761476
911.546	74.004463
911.737	73.625447
911.928	73.929857
912.119	74.041272
912.310	74.252373
912.502	74.535919
912.693	74.750692
912.884	74.565481
913.075	73.840747
913.266	73.480964
913.457	73.393077
913.648	73.886564
913.839	74.378002
914.030	74.408921
914.221	74.426119
914.412	74.424224
914.603	74.716041
914.794	75.093902
914.985	75.518056
915.176	76.327870
915.367	76.835749
915.558	77.223020
915.749	76.962134
915.940	76.926950
916.130	77.009077
916.321	77.131340
916.512	76.926700
916.703	76.730949
916.893	76.417693
917.084	75.959325
917.275	75.386005
917.466	74.691566
917.656	74.207469
917.847	74.203792
918.038	73.872164
918.228	73.533143
918.419	73.508704
918.609	73.741746
918.800	73.889697
918.990	74.538810
919.181	75.367320
919.372	76.291819
919.562	77.362773
919.753	78.057410
919.943	78.541075
920.133	78.788337
920.324	79.049220
920.514	78.950888
920.705	78.665335
920.895	78.174837
921.085	77.243533
921.276	76.673659
921.466	76.177754
921.656	75.559291
921.847	74.817782
922.037	74.387662
922.227	74.746906
922.417	74.894400
922.608	75.158067
922.798	75.643904
922.988	76.010073
923.178	76.259755
923.368	76.218970
923.558	76.043194
923.748	76.181219
923.939	76.610657
924.129	76.753200
924.319	76.264229
924.509	75.778387
924.699	75.375898
924.889	74.896600
925.079	74.677049
925.269	74.763188
925.459	75.001216
925.648	75.191691
925.838	75.146470
926.028	74.989247
926.218	75.308827
926.408	75.915294
926.598	76.130792
926.788	76.456053
926.977	76.426848
927.167	76.297948
927.357	76.179093
927.547	76.111172
927.736	76.159228
927.926	76.706555
928.116	77.140232
928.305	77.151843
928.495	76.837446
928.685	77.034386
928.874	77.469674
929.064	78.354583
929.253	79.254750
929.443	79.674349
929.633	79.620913
929.822	79.445443
930.012	79.045341
930.201	78.706384
930.391	78.689669
930.580	79.012715
930.769	79.374732
930.959	79.175378
931.148	79.055626
931.338	78.686348
931.527	78.733478
931.716	78.943472
931.906	79.192846
932.095	79.303281
932.284	79.702751
932.474	79.751625
932.663	79.678016
932.852	79.051677
933.041	78.592877
933.230	77.980692
933.420	78.009095
933.609	77.810133
933.798	77.518330
933.987	77.256211
934.176	77.179919
934.365	77.057828
934.554	76.879437
934.743	76.949914
934.932	77.335592
935.121	77.306843
935.310	77.364287
935.499	76.986254
935.688	76.933282
935.877	76.754189
936.066	76.535212
936.255	76.086857
936.444	75.600651
936.633	75.728628
936.822	75.374736
937.010	75.115908
937.199	75.381562
937.388	75.775722
937.577	76.216902
937.766	76.675573
937.954	77.321458
938.143	77.957523
938.332	78.427557
938.520	79.232150
938.709	79.275105
938.898	79.192283
939.086	79.347907
939.275	79.380094
939.464	79.079284
939.652	78.977432
939.841	78.442595
940.029	78.138512
940.218	77.846673
940.406	77.516248
940.595	76.764180
940.783	76.282302
940.972	76.249716
941.160	76.505955
941.349	76.647222
941.537	77.022453
941.725	77.109837
941.914	77.581062
942.102	77.838195
942.290	78.137926
942.479	78.655708
942.667	79.149997
942.855	79.437968
943.043	79.718348
943.232	79.730447
943.420	79.729403
943.608	79.514864
943.796	79.723441
943.984	79.756156
944.172	79.763690
944.361	79.610194
944.549	79.501440
944.737	79.572711
944.925	79.509794
945.113	79.646530
945.301	79.875376
945.489	80.314613
945.677	80.510685
945.865	80.138446
946.053	80.262843
946.241	80.630713
946.429	80.671089
946.617	80.600837
946.805	80.293115
946.992	80.535162
947.180	79.973560
947.368	79.204313
947.556	78.825381
947.744	79.072316
947.931	79.813245
948.119	79.763131
948.307	79.177845
948.495	79.027457
948.682	78.830096
948.870	78.707873
949.058	78.445270
949.245	78.986289
949.433	79.171746
949.621	78.935079
949.808	78.482340
949.996	77.799456
950.183	77.231761
950.371	77.439257
950.558	77.996343
950.746	78.134149
950.933	78.099748
951.121	78.322066
951.308	78.652803
951.496	79.058517
951.683	78.977017
951.870	79.213907
952.058	79.574240
952.245	80.038546
952.433	80.166493
952.620	79.999460
952.807	80.189258
952.994	80.699825
953.182	81.054306
953.369	80.901142
953.556	81.079910
953.743	81.253199
953.931	81.124838
954.118	81.076340
954.305	81.051452
954.492	80.752228
954.679	80.217653
954.866	80.003968
955.053	79.691772
955.240	78.859723
955.427	78.645406
955.615	78.490272
955.802	78.378203
955.989	78.450839
956.175	78.514805
956.362	78.661387
956.549	79.262149
956.736	80.325430
956.923	80.793384
957.110	81.362048
957.297	81.968739
957.484	81.940184
957.671	81.650509
957.857	82.342116
958.044	82.148059
958.231	81.492181
958.418	81.423586
958.604	81.026616
958.791	80.345166
958.978	80.366535
959.165	79.733577
959.351	79.371699
959.538	79.610908
959.724	79.458857
959.911	79.073129
960.098	79.330517
960.284	79.844315
960.471	79.556082
960.657	79.447366
960.844	79.592240
961.030	78.912133
961.217	78.585800
961.403	78.627135
961.590	78.064253
961.776	78.348104
961.963	78.276089
962.149	78.218668
962.335	78.501187
962.522	78.749595
962.708	78.200388
962.894	77.636589
963.081	78.112864
963.267	78.913543
963.453	79.656786
963.639	80.175325
963.826	80.056613
964.012	80.273112
964.198	80.623886
964.384	80.418156
964.570	79.982692
964.756	80.431584
964.943	80.720840
965.129	80.612287
965.315	80.325249
965.501	79.474746
965.687	79.209850
965.873	79.217791
966.059	79.061224
966.245	78.600942
966.431	78.497841
966.617	78.406371
966.803	78.431111
966.989	78.828571
967.174	79.451480
967.360	80.518994
967.546	81.598157
967.732	81.296221
967.918	81.229733
968.104	81.202024
968.289	80.979269
968.475	80.656222
968.661	80.990845
968.847	80.765815
969.032	80.433026
969.218	80.004157
969.404	79.465318
969.589	79.013297
969.775	79.339207
969.961	79.221056
970.146	79.175093
970.332	79.700859
970.517	80.555492
970.703	80.848048
970.888	81.550379
971.074	81.690417
971.260	81.366166
971.445	81.208198
971.630	81.134135
971.816	81.121705
972.001	81.437531
972.187	81.690555
972.372	81.351181
972.557	81.302234
972.743	81.344912
972.928	80.807129
973.113	80.299763
973.299	80.782089
973.484	80.823534
973.669	80.603628
973.854	80.726084
974.040	80.854942
974.225	81.194347
974.410	81.484025
974.595	81.091201
974.780	81.273871
974.965	81.362024
975.151	81.740726
975.336	81.496632
975.521	81.399824
975.706	81.562159
975.891	81.584138
976.076	81.538132
976.261	81.320070
976.446	81.176911
976.631	81.062576
976.816	80.647928
977.001	81.173856
977.186	81.900771
977.370	82.339150
977.555	82.730257
977.740	83.080962
977.925	84.165831
978.110	84.831935
978.295	84.578412
978.479	85.033667
978.664	85.773160
978.849	85.689677
979.034	85.516768
979.218	85.444603
979.403	85.556262
979.588	85.122061
979.772	85.324311
979.957	84.419455
980.141	84.089592
980.326	84.290218
980.511	84.052582
980.695	83.736680
980.880	83.882622
981.064	83.745159
981.249	83.719878
981.433	83.070603
981.618	83.442787
981.802	83.067411
981.987	83.381139
982.171	82.693413
982.355	82.489950
982.540	82.784332
982.724	82.828525
982.908	82.740993
983.093	82.731762
983.277	81.707427
983.461	82.408384
983.646	82.625829
983.830	83.010137
984.014	82.634596
984.198	82.407208
984.382	82.512178
984.567	82.281919
984.751	82.120747
984.935	82.821073
985.119	83.120063
985.303	84.378827
985.487	84.801462
985.671	84.632639
985.855	84.574852
986.039	84.838988
986.223	85.512854
986.407	86.237722
986.591	86.029010
986.775	85.859826
986.959	85.979292
987.143	86.188781
987.327	85.708300
987.511	84.973880
987.695	84.984752
987.879	85.468109
988.062	85.552842
988.246	85.637415
988.430	85.254245
988.614	86.135274
988.797	87.068159
988.981	87.234200
989.165	86.724272
989.349	87.023522
989.532	87.359520
989.716	87.509263
989.900	86.961449
990.083	86.649584
990.267	86.584912
990.450	86.698231
990.634	85.577753
990.817	83.878809
991.001	82.480994
991.184	82.141534
991.368	81.517810
991.551	82.131365
991.735	82.887825
991.918	83.126922
992.102	83.651074
992.285	83.942998
992.469	83.914494
992.652	84.330177
992.835	85.625770
993.019	86.388650
993.202	87.251306
993.385	87.962288
993.568	87.889585
993.752	86.955013
993.935	86.200206
994.118	86.038802
994.301	86.516643
994.484	87.011480
994.668	87.465687
994.851	87.176072
995.034	87.042376
995.217	86.396816
995.400	86.539912
995.583	85.698343
995.766	86.143715
995.949	86.766160
996.132	87.712231
996.315	87.901125
996.498	87.590094
996.681	87.527756
996.864	87.532768
997.047	88.533678
997.230	89.597102
997.413	89.630723
997.596	90.037429
997.778	89.721235
997.961	90.044010
998.144	88.666671
998.327	87.570165
998.510	87.456048
998.692	87.126272
998.875	87.256997
999.058	87.147403
999.241	86.591138
999.423	86.370948
999.606	86.406871
999.789	86.264668
999.971	86.265179
1000.154	86.954229
1000.336	86.994881
1000.519	86.045209
1000.701	85.874233
1000.884	86.331558
1001.067	86.142666
1001.249	86.056421
1001.431	85.869021
1001.614	85.828018
1001.796	85.532939
1001.979	84.924090
1002.161	84.960046
1002.344	85.631429
1002.526	85.605166
1002.708	85.087253
1002.891	84.093049
1003.073	83.547723
1003.255	84.130314
1003.438	84.351720
1003.620	83.946169
1003.802	84.554423
1003.984	85.308879
1004.166	85.523096
1004.349	85.392977
1004.531	86.795662
1004.713	87.814045
1004.895	87.868507
1005.077	87.770928
1005.259	87.948334
1005.441	87.883052
1005.623	88.696664
1005.805	88.823610
1005.987	88.063491
1006.169	87.728837
1006.351	87.892312
1006.533	87.736305
1006.715	87.910786
1006.897	88.611793
1007.079	89.347626
1007.261	89.113884
1007.443	89.602836
1007.625	89.410446
1007.806	89.617073
1007.988	90.318959
1008.170	90.071033
1008.352	90.526801
1008.534	90.379466
1008.715	89.543499
1008.897	90.073234
1009.079	89.485140
1009.260	88.920390
1009.442	88.270472
1009.624	87.323575
1009.805	86.214593
1009.987	85.006606
1010.169	84.792573
1010.350	84.220201
1010.532	83.885034
1010.713	84.560076
1010.895	84.156590
1011.076	83.990135
1011.258	83.986197
1011.439	84.080991
1011.621	85.293417
1011.802	86.343077
1011.983	87.191267
1012.165	87.638381
1012.346	87.707631
1012.527	87.393726
1012.709	86.675974
1012.890	86.023103
1013.071	86.685570
1013.253	87.595857
1013.434	87.946751
1013.615	87.697739
1013.796	87.017470
1013.978	87.297705
1014.159	87.582827
1014.340	88.191146
1014.521	89.629312
1014.702	90.630379
1014.883	90.736708
1015.064	89.922549
1015.245	88.970588
1015.427	89.451931
1015.608	89.592516
1015.789	90.068105
1015.970	89.870035
1016.151	90.023144
1016.332	90.560308
1016.512	89.835284
1016.693	89.615903
1016.874	90.367802
1017.055	91.479570
1017.236	92.762119
1017.417	92.367453
1017.598	92.286683
1017.779	92.831700
1017.959	92.482233
1018.140	92.054038
1018.321	91.364388
1018.502	91.685840
1018.682	91.074200
1018.863	90.313523
1019.044	89.943720
1019.224	89.436622
1019.405	89.631980
1019.586	89.544984
1019.766	89.006498
1019.947	89.346133
1020.127	89.646561
1020.308	88.790320
1020.488	87.773579
1020.669	88.068883
1020.849	88.446675
1021.030	89.066410
1021.210	89.130463
1021.391	88.306564
1021.571	88.135489
1021.752	88.293599
1021.932	87.881521
1022.112	87.739408
1022.293	88.668938
1022.473	90.192667
1022.653	91.454949
1022.834	91.712798
1023.014	90.858168
1023.194	90.692034
1023.374	90.344382
1023.555	89.668045
1023.735	89.352314
1023.915	90.265271
1024.095	90.707131
1024.275	89.969037
1024.455	89.120011
1024.635	87.633126
1024.816	87.265722
1024.996	86.919373
1025.176	86.706851
1025.356	88.050979
1025.536	88.955095
1025.716	89.064010
1025.896	88.430673
1026.076	87.513480
1026.256	87.362433
1026.436	86.599692
1026.615	86.578720
1026.795	86.991338
1026.975	87.971643
1027.155	87.954949
1027.335	87.232334
1027.515	87.508071
1027.695	87.313148
1027.874	87.178214
1028.054	87.483612
1028.234	87.670519
1028.413	88.444074
1028.593	89.707132
1028.773	89.549140
1028.953	88.612368
1029.132	87.755972
1029.312	88.312762
1029.491	89.233918
1029.671	89.589704
1029.851	90.235033
1030.030	90.547115
1030.210	90.908893
1030.389	90.889497
1030.569	90.442306
1030.748	90.018004
1030.928	90.676229
1031.107	91.516952
1031.286	91.240927
1031.466	89.191202
1031.645	88.299128
1031.825	87.795236
1032.004	87.624245
1032.183	88.138282
1032.363	87.606887
1032.542	87.243690
1032.721	87.570306
1032.900	87.621823
1033.080	89.146077
1033.259	89.052398
1033.438	89.451744
1033.617	90.465203
1033.796	89.622113
1033.975	88.907655
1034.155	88.135299
1034.334	89.017966
1034.513	88.982620
1034.692	88.693075
1034.871	89.016646
1035.050	87.630891
1035.229	87.876437
1035.408	88.950321
1035.587	89.293541
1035.766	89.909014
1035.945	89.295285
1036.124	88.915119
1036.303	87.292975
1036.481	86.221568
1036.660	86.782262
1036.839	86.589366
1037.018	86.440104
1037.197	86.145498
1037.376	84.889627
1037.554	84.704001
1037.733	84.629888
1037.912	85.666176
1038.091	86.006888
1038.269	87.912434
1038.448	89.148303
1038.627	88.676835
1038.805	89.028480
1038.984	88.812546
1039.162	88.468335
1039.341	89.761347
1039.520	89.515694
1039.698	89.847496
1039.877	89.310023
1040.055	88.878006
1040.234	88.159523
1040.412	87.884310
1040.591	87.785901
1040.769	86.909612
1040.947	87.668887
1041.126	88.862590
1041.304	87.451558
1041.483	87.297900
1041.661	87.296584
1041.839	87.214412
1042.017	87.665365
1042.196	87.972846
1042.374	87.763958
1042.552	87.493378
1042.730	87.758196
1042.909	87.972885
1043.087	86.873562
1043.265	87.681135
1043.443	86.983115
1043.621	87.764952
1043.799	89.042508
1043.978	88.169067
1044.156	86.857472
1044.334	86.655899
1044.512	86.612953
1044.690	86.141640
1044.868	85.715608
1045.046	85.314096
1045.224	84.859781
1045.402	85.922833
1045.580	85.087380
1045.758	84.556344
1045.935	85.520537
1046.113	86.944134
1046.291	87.089226
1046.469	87.684786
1046.647	87.885150
1046.825	87.128469
1047.002	88.209786
1047.180	88.968660
1047.358	88.404116
1047.536	88.872167
1047.713	89.137920
1047.891	88.911497
1048.069	88.205154
1048.246	88.328505
1048.424	87.764652
1048.602	87.603822
1048.779	88.211409
1048.957	87.703637
1049.134	87.056942
1049.312	86.887333
1049.489	86.660949
1049.667	86.874347
1049.844	87.235880
1050.022	86.974110
1050.199	87.083366
1050.377	87.368207
1050.554	87.790380
1050.731	87.922986
1050.909	87.632555
1051.086	87.444964
1051.263	87.293800
1051.441	87.237229
1051.618	86.234629
1051.795	85.891061
1051.973	85.835487
1052.150	85.890669
1052.327	85.988426
1052.504	86.301833
1052.681	85.432244
1052.859	85.283316
1053.036	85.769710
1053.213	86.928223
1053.390	87.133691
1053.567	87.668167
1053.744	87.917432
1053.921	89.162026
1054.098	89.692669
1054.275	89.894812
1054.452	89.422097
1054.629	89.908619
1054.806	90.478710
1054.983	90.031162
1055.160	89.252338
1055.337	89.312651
1055.514	88.581435
1055.691	88.011854
1055.868	86.806855
1056.044	86.038497
1056.221	86.152274
1056.398	85.991152
1056.575	85.697708
1056.751	85.374739
1056.928	84.956151
1057.105	84.954691
1057.282	84.848227
1057.458	84.585593
1057.635	84.026349
1057.812	84.293163
1057.988	84.104389
1058.165	83.384357
1058.341	83.459417
1058.518	83.731392
1058.694	84.416937
1058.871	85.555611
1059.047	85.668069
1059.224	85.463533
1059.401	85.587798
1059.577	86.436026
1059.753	86.845204
1059.930	86.545328
1060.106	86.689079
1060.282	86.313225
1060.459	85.966023
1060.635	84.614162
1060.812	83.118309
1060.988	82.290336
1061.164	82.132434
1061.340	82.300385
1061.517	81.878050
1061.693	81.679116
1061.869	81.697977
1062.045	81.822763
1062.221	81.622982
1062.398	81.550884
1062.574	82.019729
1062.750	82.645226
1062.926	83.382232
1063.102	82.918535
1063.278	82.393078
1063.454	82.310250
1063.630	81.709595
1063.806	81.715761
1063.982	81.621387
1064.158	81.973330
1064.334	82.548477
1064.510	82.921472
1064.686	83.129294
1064.862	83.203530
1065.038	83.760687
1065.214	84.410511
1065.389	83.978162
1065.565	83.972297
1065.741	84.472192
1065.917	85.362229
1066.093	85.092752
1066.268	84.142375
1066.444	84.318576
1066.620	84.407467
1066.795	84.600556
1066.971	84.637052
1067.147	84.236014
1067.322	84.453648
1067.498	85.222639
1067.673	84.972489
1067.849	83.717490
1068.025	83.867868
1068.200	85.436296
1068.376	85.700104
1068.551	85.333312
1068.727	84.397690
1068.902	83.779110
1069.078	83.743559
1069.253	84.441544
1069.428	84.244588
1069.604	84.729327
1069.779	84.600998
1069.954	83.851036
1070.130	82.780410
1070.305	81.725261
1070.480	81.967184
1070.656	82.985505
1070.831	83.622739
1071.006	84.022995
1071.181	84.210660
1071.357	84.699664
1071.532	84.961698
1071.707	85.230167
1071.882	85.782642
1072.057	86.038286
1072.232	85.969968
1072.407	84.932027
1072.582	84.312768
1072.757	84.044310
1072.932	83.992274
1073.107	83.259095
1073.282	82.459427
1073.457	81.449612
1073.632	80.619134
1073.807	80.474032
1073.982	80.024651
1074.157	80.151263
1074.332	80.582735
1074.507	80.441207
1074.682	79.680984
1074.856	79.089925
1075.031	78.347164
1075.206	78.354584
1075.381	78.622800
1075.556	79.584455
1075.730	79.776821
1075.905	79.626846
1076.080	78.968812
1076.254	78.660999
1076.429	78.908029
1076.604	79.612095
1076.778	79.538543
1076.953	80.194332
1077.127	79.868224
1077.302	79.047118
1077.477	77.946070
1077.651	77.860345
1077.826	78.228549
1078.000	79.422552
1078.175	79.990212
1078.349	79.695152
1078.523	79.403364
1078.698	80.287513
1078.872	80.642070
1079.047	80.556269
1079.221	81.275879
1079.395	82.429705
1079.570	82.280395
1079.744	81.893230
1079.918	80.625990
1080.092	79.921289
1080.267	79.163352
1080.441	79.136329
1080.615	78.708717
1080.789	78.163991
1080.963	77.855957
1081.137	77.135434
1081.312	76.546165
1081.486	76.575228
1081.660	76.779972
1081.834	77.136849
1082.008	77.596992
1082.182	78.785072
1082.356	79.184850
1082.530	79.196394
1082.704	78.710737
1082.878	78.707468
1083.052	79.429264
1083.226	79.342698
1083.400	78.917195
1083.573	78.818581
1083.747	79.024469
1083.921	78.599541
1084.095	77.480908
1084.269	76.519679
1084.443	76.559831
1084.616	77.651575
1084.790	78.139287
1084.964	77.678902
1085.138	78.142600
1085.311	77.868566
1085.485	77.379897
1085.659	77.146189
1085.832	77.496315
1086.006	77.977558
1086.179	78.433951
1086.353	78.302237
1086.527	77.892067
1086.700	77.824853
1086.874	77.347534
1087.047	77.208376
1087.221	77.598088
1087.394	78.219651
1087.568	78.112359
1087.741	78.113606
1087.914	77.907241
1088.088	77.907018
1088.261	78.405327
1088.435	78.338599
1088.608	78.208287
1088.781	78.918971
1088.954	79.076830
1089.128	79.029844
1089.301	78.885685
1089.474	78.980156
1089.647	78.895853
1089.821	78.758453
1089.994	78.485374
1090.167	77.535487
1090.340	77.183839
1090.513	76.428555
1090.686	75.644850
1090.859	74.717127
1091.032	74.036435
1091.206	73.601071
1091.379	73.721864
1091.552	73.461746
1091.725	73.730797
1091.898	73.996618
1092.071	74.105429
1092.244	73.888825
1092.416	74.454357
1092.589	74.545330
1092.762	74.674182
1092.935	75.271448
1093.108	75.578002
1093.281	75.177545
1093.453	75.306778
1093.626	75.096742
1093.799	75.086485
1093.972	75.611043
1094.145	75.745035
1094.317	75.368883
1094.490	75.558851
1094.663	75.274430
1094.835	74.579494
1095.008	74.061749
1095.181	74.363515
1095.353	74.480098
1095.526	74.642018
1095.698	74.219958
1095.871	73.876500
1096.043	73.566953
1096.216	73.882360
1096.388	73.747435
1096.561	73.471684
1096.733	73.549984
1096.906	73.973549
1097.078	74.058392
1097.250	73.740257
1097.423	73.322234
1097.595	73.542917
1097.768	73.336428
1097.940	73.856696
1098.112	73.701023
1098.284	74.201259
1098.457	74.867104
1098.629	75.664042
1098.801	75.027714
1098.973	73.894572
1099.146	73.801600
1099.318	73.641429
1099.490	73.292626
1099.662	73.053692
1099.834	72.844137
1100.006	72.400725
1100.178	71.810952
1100.350	71.405135
1100.522	70.665579
1100.694	70.612320
1100.866	70.648190
1101.038	70.745183
1101.210	70.652230
1101.382	71.040614
1101.554	71.285098
1101.726	71.302921
1101.898	71.063477
1102.070	70.829037
1102.241	70.886646
1102.413	70.704665
1102.585	70.550545
1102.757	70.839745
1102.929	70.295734
1103.100	70.330670
1103.272	69.491314
1103.444	69.226649
1103.616	69.213259
1103.787	69.397397
1103.959	68.933602
1104.130	68.527974
1104.302	68.663408
1104.474	69.095997
1104.645	69.043265
1104.817	68.755882
1104.988	68.546345
1105.160	68.704745
1105.331	68.570459
1105.503	68.096142
1105.674	68.637872
1105.846	69.396918
1106.017	69.462947
1106.189	69.288506
1106.360	68.810240
1106.531	68.578446
1106.703	68.604013
1106.874	68.283251
1107.045	68.641152
1107.217	68.864698
1107.388	68.831603
1107.559	68.081592
1107.730	67.499134
1107.902	68.067059
1108.073	68.247487
1108.244	68.456403
1108.415	68.721961
1108.586	68.845418
1108.757	68.707396
1108.929	68.197810
1109.100	67.910720
1109.271	67.698190
1109.442	67.698037
1109.613	67.950961
1109.784	67.631112
1109.955	67.555660
1110.126	67.137270
1110.297	66.632289
1110.468	66.673633
1110.639	66.795129
1110.809	66.940133
1110.980	66.966188
1111.151	67.328951
1111.322	67.569201
1111.493	67.333681
1111.664	66.684224
1111.834	66.371994
1112.005	66.597301
1112.176	67.236585
1112.347	67.341595
1112.517	67.072106
1112.688	66.543324
1112.859	66.158421
1113.029	65.469794
1113.200	65.177845
1113.371	65.245045
1113.541	65.184518
1113.712	64.968692
1113.882	65.260697
1114.053	64.631475
1114.223	64.245967
1114.394	64.492741
1114.564	64.121511
1114.735	63.623729
1114.905	63.643396
1115.076	63.322063
1115.246	63.025100
1115.416	62.924183
1115.587	62.976924
1115.757	62.046411
1115.927	61.919749
1116.098	61.737426
1116.268	61.225467
1116.438	61.534216
1116.609	61.860301
1116.779	61.941382
1116.949	62.131275
1117.119	61.841312
1117.289	61.549965
1117.459	61.346360
1117.630	61.598698
1117.800	61.836655
1117.970	62.088495
1118.140	62.207430
1118.310	62.162671
1118.480	62.268239
1118.650	62.384240
1118.820	62.235849
1118.990	62.179154
1119.160	62.348390
1119.330	62.079573
1119.500	61.495615
1119.670	60.963529
1119.840	60.795585
1120.010	60.464662
1120.179	60.116549
1120.349	59.853185
1120.519	59.129807
1120.689	58.449282
1120.859	58.364629
1121.028	58.617154
1121.198	58.780477
1121.368	59.055953
1121.538	58.971777
1121.707	58.642954
1121.877	58.664048
1122.047	58.725047
1122.216	58.502605
1122.386	58.737721
1122.555	59.073731
1122.725	59.339308
1122.894	58.810726
1123.064	58.187893
1123.233	57.893072
1123.403	58.070637
1123.573	57.837986
1123.742	57.455479
1123.911	57.428604
1124.081	57.521663
1124.250	57.706456
1124.419	57.766901
1124.589	57.760998
1124.758	58.127040
1124.927	58.486337
1125.097	58.929877
1125.266	58.677184
1125.435	58.397390
1125.605	58.557013
1125.774	58.305856
1125.943	57.860130
1126.112	57.255218
1126.281	57.255755
1126.450	56.986897
1126.620	56.483495
1126.789	56.291372
1126.958	56.204064
1127.127	56.209866
1127.296	56.846495
1127.465	57.072527
1127.634	57.185058
1127.803	57.618708
1127.972	57.675889
1128.141	57.009835
1128.310	56.864412
1128.479	57.091696
1128.648	56.737920
1128.817	56.161811
1128.985	55.747651
1129.154	55.025753
1129.323	54.577324
1129.492	54.538921
1129.661	53.888198
1129.829	53.966584
1129.998	54.105709
1130.167	53.702680
1130.336	53.377278
1130.504	53.614625
1130.673	53.827407
1130.842	53.834444
1131.010	53.751142
1131.179	53.666988
1131.347	53.015684
1131.516	52.967963
1131.685	52.373880
1131.853	51.904505
1132.022	51.508280
1132.190	51.156751
1132.359	51.091010
1132.527	50.995312
1132.696	50.835489
1132.864	50.734546
1133.032	50.394275
1133.201	50.378065
1133.369	50.582782
1133.537	50.766236
1133.706	51.019611
1133.874	51.741808
1134.042	51.711362
1134.211	51.716881
1134.379	51.403937
1134.547	51.262693
1134.715	51.229368
1134.884	51.496753
1135.052	51.616505
1135.220	51.124128
1135.388	50.982462
1135.556	50.979966
1135.724	50.751309
1135.892	50.575224
1136.060	50.366116
1136.228	50.020137
1136.396	49.853754
1136.564	49.794823
1136.732	49.708860
1136.900	49.547238
1137.068	49.577163
1137.236	49.258273
1137.404	49.032066
1137.572	48.917600
1137.740	48.943579
1137.908	48.348240
1138.076	48.485092
1138.243	48.876831
1138.411	48.668806
1138.579	48.368262
1138.747	48.160764
1138.914	47.663683
1139.082	47.668560
1139.250	47.863247
1139.417	47.921660
1139.585	48.125241
1139.753	48.645117
1139.920	48.338531
1140.088	47.769739
1140.256	47.606498
1140.423	48.015118
1140.591	48.398499
1140.758	49.126693
1140.926	48.919442
1141.093	48.673942
1141.261	48.323934
1141.428	47.897117
1141.596	47.505894
1141.763	47.464324
1141.930	47.658829
1142.098	47.646556
1142.265	46.917852
1142.432	46.640329
1142.600	46.364157
1142.767	46.326328
1142.934	46.086693
1143.102	45.762494
1143.269	45.576174
1143.436	45.517181
1143.603	45.619003
1143.771	45.581802
1143.938	45.796456
1144.105	46.134062
1144.272	45.444238
1144.439	44.458272
1144.606	43.999989
1144.773	43.988846
1144.940	43.903940
1145.107	43.813561
1145.274	43.544061
1145.441	42.972015
1145.608	42.510752
1145.775	42.201388
1145.942	41.653137
1146.109	41.975599
1146.276	42.475964
1146.443	42.851607
1146.610	42.573849
1146.776	42.420508
1146.943	42.414070
1147.110	42.255305
1147.277	42.801708
1147.444	43.023629
1147.610	42.976827
1147.777	43.154052
1147.944	42.968594
1148.110	42.828599
1148.277	42.800039
1148.444	43.022436
1148.610	43.263604
1148.777	43.005817
1148.944	43.326113
1149.110	43.398356
1149.277	43.120257
1149.443	42.983814
1149.610	42.825624
1149.776	42.511641
1149.943	42.687206
1150.109	42.399228
1150.276	42.029377
1150.442	41.772768
1150.608	42.163902
1150.775	42.093361
1150.941	41.384162
1151.107	41.471663
1151.274	41.238606
1151.440	40.993731
1151.606	41.149040
1151.773	40.756576
1151.939	40.439869
1152.105	40.066710
1152.271	40.014052
1152.438	39.800725
1152.604	39.203351
1152.770	39.153864
1152.936	38.986175
1153.102	39.082000
1153.268	39.128386
1153.434	39.065796
1153.600	38.900618
1153.766	39.252408
1153.932	39.556438
1154.098	39.377798
1154.264	39.189409
1154.430	39.299411
1154.596	39.503752
1154.762	39.403501
1154.928	39.222848
1155.094	39.566669
1155.260	39.390219
1155.426	39.547611
1155.591	39.388311
1155.757	39.414497
1155.923	39.033833
1156.089	38.952149
1156.255	38.820864
1156.420	38.426721
1156.586	38.326573
1156.752	38.587970
1156.917	38.250765
1157.083	38.113569
1157.249	37.981329
1157.414	37.455795
1157.580	36.946174
1157.745	36.766333
1157.911	36.588701
1158.076	36.465801
1158.242	36.426476
1158.407	36.228597
1158.573	35.690653
1158.738	35.380592
1158.904	35.148573
1159.069	35.012927
1159.235	35.402417
1159.400	35.576309
1159.565	35.563332
1159.731	35.395524
1159.896	35.407539
1160.061	35.512935
1160.227	35.907275
1160.392	35.705878
1160.557	35.304453
1160.722	35.062128
1160.888	35.106668
1161.053	34.927580
1161.218	34.750220
1161.383	35.080229
1161.548	35.056944
1161.713	34.775497
1161.878	34.501879
1162.043	33.869971
1162.208	33.828477
1162.374	33.854649
1162.539	34.339978
1162.704	34.349379
1162.869	34.045129
1163.033	33.661219
1163.198	33.184932
1163.363	33.085702
1163.528	33.107672
1163.693	33.282939
1163.858	34.112980
1164.023	34.186794
1164.188	33.983724
1164.353	33.805071
1164.517	33.555713
1164.682	33.779293
1164.847	34.270403
1165.011	34.806377
1165.176	35.012584
1165.341	35.305108
1165.506	34.512051
1165.670	33.527537
1165.835	33.498457
1166.000	33.800623
1166.164	33.583717
1166.329	33.329887
1166.493	33.418844
1166.658	33.136514
1166.822	32.664392
1166.987	32.040758
1167.151	31.956219
1167.316	32.567435
1167.480	32.519740
1167.645	32.067737
1167.809	31.856268
1167.973	31.799280
1168.138	31.584875
1168.302	30.926314
1168.466	30.904332
1168.631	30.901473
1168.795	31.073335
1168.959	31.140577
1169.124	31.057089
1169.288	31.054465
1169.452	31.348439
1169.616	31.605283
1169.780	31.997948
1169.944	32.202399
1170.109	32.337090
1170.273	32.091302
1170.437	32.113286
1170.601	32.079701
1170.765	31.849242
1170.929	31.790761
1171.093	31.944474
1171.257	31.654913
1171.421	31.075860
1171.585	30.420327
1171.749	30.169401
1171.913	30.107109
1172.077	29.779492
1172.240	29.736436
1172.404	29.773147
1172.568	29.662845
1172.732	29.425527
1172.896	28.865745
1173.060	29.063129
1173.223	29.806584
1173.387	30.593692
1173.551	30.973054
1173.715	31.422009
1173.878	31.899202
1174.042	31.691479
1174.206	31.577006
1174.369	31.846099
1174.533	31.913317
1174.696	32.078696
1174.860	32.426342
1175.023	32.036286
1175.187	31.161218
1175.351	30.550456
1175.514	30.249254
1175.677	30.170526
1175.841	30.142135
1176.004	29.723220
1176.168	29.044556
1176.331	28.706022
1176.495	28.801835
1176.658	28.233415
1176.821	28.434743
1176.985	28.873850
1177.148	29.322955
1177.311	29.318917
1177.474	29.288978
1177.638	29.327211
1177.801	29.328483
1177.964	29.865711
1178.127	29.928817
1178.291	29.616792
1178.454	29.652037
1178.617	29.251147
1178.780	28.967795
1178.943	28.956616
1179.106	28.704871
1179.269	28.638444
1179.432	28.561040
1179.595	28.566756
1179.758	28.020256
1179.921	27.935551
1180.084	28.390039
1180.247	28.585198
1180.410	28.494293
1180.573	28.553569
1180.736	28.171756
1180.899	28.045445
1181.061	27.737035
1181.224	27.705928
1181.387	27.700719
1181.550	27.820710
1181.713	27.955777
1181.875	27.493373
1182.038	27.244599
1182.201	27.413877
1182.363	27.444141
1182.526	27.939695
1182.689	28.106635
1182.851	28.029045
1183.014	28.076117
1183.177	28.354366
1183.339	28.528070
1183.502	28.725423
1183.664	29.104859
1183.827	29.798664
1183.989	29.950245
1184.152	30.079196
1184.314	29.630421
1184.477	29.520217
1184.639	29.685231
1184.801	29.533176
1184.964	29.362135
1185.126	28.955410
1185.288	28.725306
1185.451	28.329184
1185.613	27.620619
1185.775	27.403125
1185.938	27.228432
1186.100	27.669239
1186.262	28.176021
1186.424	28.261561
1186.586	28.608077
1186.749	29.043872
1186.911	29.496807
1187.073	29.807312
1187.235	29.973709
1187.397	30.246433
1187.559	30.074871
1187.721	29.829483
1187.883	29.656605
1188.045	29.141626
1188.207	29.277915
1188.369	28.989352
1188.531	28.571150
1188.693	28.501756
1188.855	28.141899
1189.017	28.173343
1189.179	28.110763
1189.341	27.975186
1189.502	28.229838
1189.664	28.146845
1189.826	28.290051
1189.988	28.247223
1190.150	28.133079
1190.311	28.200440
1190.473	28.446934
1190.635	28.871512
1190.796	28.578348
1190.958	28.476611
1191.120	28.714500
1191.281	28.373534
1191.443	28.752683
1191.604	29.245905
1191.766	29.313238
1191.928	29.113452
1192.089	29.073846
1192.251	29.081532
1192.412	28.879785
1192.574	29.245880
1192.735	29.195625
1192.896	29.242492
1193.058	29.453586
1193.219	28.928236
1193.381	28.525348
1193.542	28.480588
1193.703	29.060730
1193.865	29.361824
1194.026	29.383588
1194.187	29.323146
1194.349	29.140261
1194.510	29.489044
1194.671	29.868092
1194.832	30.053872
1194.993	30.325958
1195.155	30.092800
1195.316	30.225375
1195.477	30.791094
1195.638	30.969538
1195.799	31.088282
1195.960	31.067361
1196.121	31.286816
1196.282	30.858317
1196.443	30.614013
1196.604	30.766539
1196.765	30.924904
1196.926	31.584737
1197.087	31.773115
1197.248	31.248951
1197.409	31.068809
1197.570	30.787818
1197.730	30.839991
1197.891	30.659577
1198.052	30.579407
1198.213	30.861958
1198.374	30.723936
1198.534	30.825460
1198.695	30.389941
1198.856	30.017536
1199.016	30.303640
1199.177	29.974190
1199.338	30.131732
1199.498	30.076349
1199.659	29.856238
1199.820	30.255163
1199.980	29.890384
1200.141	29.576182
1200.301	29.362169
1200.462	29.414196
1200.622	29.305684
1200.783	28.864942
1200.943	28.925203
1201.104	28.540564
1201.264	28.814379
1201.424	29.383905
1201.585	29.414806
1201.745	29.921080
1201.906	30.522569
1202.066	30.128395
1202.226	30.090065
1202.386	30.468884
1202.547	30.799584
1202.707	31.323403
1202.867	32.031955
1203.027	32.254743
1203.188	32.191521
1203.348	32.383081
1203.508	32.184598
1203.668	31.876601
1203.828	32.501029
1203.988	32.766504
1204.148	32.936434
1204.308	32.877853
1204.468	32.776229
1204.628	32.506365
1204.788	32.209586
1204.948	32.318062
1205.108	31.949534
1205.268	31.562189
1205.428	31.356470
1205.588	31.100198
1205.748	31.119074
1205.908	30.797115
1206.068	30.373153
1206.228	29.936131
1206.387	29.550047
1206.547	29.631252
1206.707	29.594410
1206.867	29.660497
1207.026	29.718729
1207.186	30.145787
1207.346	30.428158
1207.505	30.497086
1207.665	30.865238
1207.825	31.471140
1207.984	32.086034
1208.144	32.540059
1208.303	32.825984
1208.463	32.792878
1208.622	33.041066
1208.782	33.454130
1208.941	33.547274
1209.101	33.304574
1209.260	33.011317
1209.420	32.661420
1209.579	32.061250
1209.739	32.065429
1209.898	32.012982
1210.057	31.946262
1210.217	31.934001
1210.376	32.116260
1210.535	32.108622
1210.694	32.391456
1210.854	32.641769
1211.013	33.134640
1211.172	33.796251
1211.331	34.504885
1211.490	34.189924
1211.650	33.874150
1211.809	33.673414
1211.968	33.794290
1212.127	33.630143
1212.286	33.641590
1212.445	33.710875
1212.604	33.798422
1212.763	33.783019
1212.922	33.783756
1213.081	33.982175
1213.240	34.319756
1213.399	34.705123
1213.558	35.040019
1213.717	35.103063
1213.876	35.638287
1214.035	36.085906
1214.194	35.981423
1214.352	36.180099
1214.511	36.254811
1214.670	35.539432
1214.829	35.035098
1214.988	35.076006
1215.146	34.944723
1215.305	34.986849
1215.464	34.928562
1215.622	34.701707
1215.781	34.959752
1215.940	35.202749
1216.098	34.927386
1216.257	35.428858
1216.415	36.308626
1216.574	36.463688
1216.732	36.730451
1216.891	37.064951
1217.049	36.486243
1217.208	36.661283
1217.366	36.773210
1217.525	36.657453
1217.683	36.541818
1217.842	36.664602
1218.000	36.013950
1218.158	35.430890
1218.317	35.730339
1218.475	35.718284
1218.633	35.885185
1218.792	36.770512
1218.950	37.115854
1219.108	37.190088
1219.266	37.458768
1219.425	37.995865
1219.583	37.866566
1219.741	37.813609
1219.899	38.393870
1220.057	38.759370
1220.215	38.900813
1220.373	38.719863
1220.531	38.352055
1220.689	38.310822
1220.847	37.753441
1221.005	37.370382
1221.163	36.802765
1221.322	36.720706
1221.479	36.826435
1221.637	36.393519
1221.795	36.109407
1221.953	35.651822
1222.111	35.500899
1222.269	36.294243
1222.427	36.758011
1222.584	37.379507
1222.742	37.547169
1222.900	38.079133
1223.058	38.874092
1223.216	39.531581
1223.373	40.139413
1223.531	40.373784
1223.689	41.085673
1223.846	41.765476
1224.004	41.526511
1224.162	40.992368
1224.319	40.799720
1224.477	40.465729
1224.634	40.323237
1224.792	39.814601
1224.949	39.341478
1225.107	39.028134
1225.264	38.834492
1225.422	38.216958
1225.579	37.580791
1225.737	36.969951
1225.894	36.986822
1226.052	36.856127
1226.209	37.201063
1226.366	37.185955
1226.523	37.234653
1226.681	37.457419
1226.838	37.885677
1226.995	37.864837
1227.153	38.202572
1227.310	38.322830
1227.467	38.860256
1227.624	39.390969
1227.781	39.661817
1227.938	39.591447
1228.096	39.830800
1228.253	40.360134
1228.410	40.721237
1228.567	40.714898
1228.724	40.781673
1228.881	40.830584
1229.038	41.353500
1229.195	41.341862
1229.352	41.684804
1229.509	41.800746
1229.666	41.705359
1229.823	41.511875
1229.980	41.527365
1230.136	41.541421
1230.293	41.706196
1230.450	42.193898
1230.607	42.202568
1230.764	41.836125
1230.921	41.689848
1231.077	41.275697
1231.234	41.031172
1231.391	41.370928
1231.547	41.371308
1231.704	41.359587
1231.861	41.268038
1232.018	41.319039
1232.174	41.279694
1232.331	42.009576
1232.487	43.253777
1232.644	43.971298
1232.800	44.075315
1232.957	44.474713
1233.113	44.637324
1233.270	44.754235
1233.426	44.686723
1233.583	44.469082
1233.739	44.167387
1233.896	44.347708
1234.052	44.231357
1234.208	43.699700
1234.365	43.397048
1234.521	43.282263
1234.677	43.588411
1234.834	43.752577
1234.990	44.006345
1235.146	44.328006
1235.302	44.426041
1235.459	44.386456
1235.615	44.376695
1235.771	43.752183
1235.927	43.392253
1236.083	43.562592
1236.239	43.919966
1236.396	43.720649
1236.552	43.056392
1236.708	42.629358
1236.864	42.496861
1237.020	42.875824
1237.176	43.459142
1237.332	43.251552
1237.488	43.702291
1237.644	43.704071
1237.799	44.016643
1237.955	44.252386
1238.111	44.629370
1238.267	45.594019
1238.423	45.770272
1238.579	45.352221
1238.734	45.244973
1238.890	45.125312
1239.046	45.314326
1239.202	45.350959
1239.357	45.498370
1239.513	45.074921
1239.669	44.451642
1239.824	44.301002
1239.980	44.241634
1240.136	44.564781
1240.291	45.197557
1240.447	45.305470
1240.603	45.379155
1240.758	45.448843
1240.914	45.115445
1241.069	44.976988
1241.225	45.030509
1241.380	44.895958
1241.535	44.905298
1241.691	45.075713
1241.846	45.377019
1242.002	45.782773
1242.157	46.286945
1242.313	46.427784
1242.468	46.283682
1242.623	46.631930
1242.778	47.626755
1242.934	48.143293
1243.089	48.443820
1243.244	48.448946
1243.399	48.330905
1243.554	48.525104
1243.710	48.729002
1243.865	48.757130
1244.020	48.853203
1244.175	49.609392
1244.330	49.718861
1244.485	49.142153
1244.640	48.517569
1244.795	48.763911
1244.950	49.398662
1245.105	49.432624
1245.260	48.678174
1245.415	48.050843
1245.570	47.870628
1245.725	48.128176
1245.880	47.811628
1246.035	48.125450
1246.190	48.441134
1246.345	49.064343
1246.499	49.621946
1246.654	49.339026
1246.809	49.288638
1246.964	49.832355
1247.118	49.878851
1247.273	49.736900
1247.428	49.708747
1247.583	49.721473
1247.737	49.457354
1247.892	49.131226
1248.047	49.058374
1248.201	49.042650
1248.356	49.284213
1248.510	49.027668
1248.665	48.506249
1248.819	48.529572
1248.974	48.987164
1249.128	49.516819
1249.283	50.031887
1249.437	50.697482
1249.592	50.955263
1249.746	50.979882
1249.900	50.651240
1250.055	49.839187
1250.209	50.276995
1250.363	51.151082
1250.518	51.296429
1250.672	50.893604
1250.826	50.251666
1250.981	49.575651
1251.135	49.219155
1251.289	49.333690
1251.443	49.331478
1251.597	49.817141
1251.751	50.899696
1251.906	50.578637
1252.060	50.076501
1252.214	50.050857
1252.368	50.281987
1252.522	49.928717
1252.676	49.943517
1252.830	49.915736
1252.984	49.843611
1253.138	50.286016
1253.292	49.891441
1253.446	49.349920
1253.600	49.472803
1253.754	49.846300
1253.907	49.330716
1254.061	49.804619
1254.215	50.940296
1254.369	51.044627
1254.523	51.046868
1254.677	51.569421
1254.830	51.859730
1254.984	52.566886
1255.138	53.076866
1255.292	53.731716
1255.445	53.662168
1255.599	54.680769
1255.752	54.191718
1255.906	53.584403
1256.060	54.236196
1256.213	54.258428
1256.367	54.054361
1256.520	53.683658
1256.674	53.038288
1256.827	52.602102
1256.981	52.244924
1257.134	52.206993
1257.288	51.869216
1257.441	51.731709
1257.594	51.795978
1257.748	51.348998
1257.901	51.536841
1258.055	51.261495
1258.208	51.475471
1258.361	51.744305
1258.515	52.374587
1258.668	52.753740
1258.821	53.525118
1258.974	53.416265
1259.127	53.967481
1259.281	54.705691
1259.434	55.526332
1259.587	55.925655
1259.740	56.814564
1259.893	57.467092
1260.046	57.289213
1260.199	57.860215
1260.352	58.142854
1260.505	57.582966
1260.658	57.984839
1260.811	57.845242
1260.964	57.282922
1261.117	56.925297
1261.270	56.899379
1261.423	56.411000
1261.576	55.180592
1261.729	55.283179
1261.882	54.668690
1262.035	54.142736
1262.188	55.354451
1262.340	56.053728
1262.493	56.037037
1262.646	56.245328
1262.798	56.104597
1262.951	56.266496
1263.104	56.525636
1263.257	56.677310
1263.409	57.295877
1263.562	57.117405
1263.714	57.038044
1263.867	54.900623
1264.020	54.074656
1264.172	54.509411
1264.325	53.980415
1264.477	53.276871
1264.630	52.360606
1264.782	51.465900
1264.935	51.347018
1265.087	50.227153
1265.240	49.355916
1265.392	50.084590
1265.544	51.551528
1265.697	51.194531
1265.849	50.249155
1266.001	50.288907
1266.154	50.993589
1266.306	52.105642
1266.458	52.630663
1266.610	53.097602
1266.762	53.805676
1266.915	55.402635
1267.067	55.543866
1267.219	55.281433
1267.371	56.013248
1267.523	56.732864
1267.675	57.452787
1267.828	57.617471
1267.979	57.371340
1268.132	57.002096
1268.284	57.701765
1268.436	58.507784
1268.588	58.392831
1268.740	57.984334
1268.891	57.845581
1269.043	57.888627
1269.195	58.182458
1269.347	58.438341
1269.499	58.829753
1269.651	58.944757
1269.803	60.299643
1269.955	59.769943
1270.106	59.809081
1270.258	59.100361
1270.410	58.878922
1270.562	58.722905
1270.713	59.039499
1270.865	58.351761
1271.017	57.436776
1271.168	56.163119
1271.320	55.600331
1271.471	55.386017
1271.623	54.944094
1271.775	54.136900
1271.926	54.341368
1272.078	54.431157
1272.229	54.410625
1272.381	54.827149
1272.532	56.069051
1272.684	56.575061
1272.835	57.498178
1272.986	59.063922
1273.138	59.420847
1273.289	60.222759
1273.440	61.141202
1273.592	61.219654
1273.743	61.285073
1273.894	61.274797
1274.046	61.517603
1274.197	61.175090
1274.348	61.347687
1274.500	61.725215
1274.651	60.695977
1274.802	60.286710
>>>>>>>>>> END of Data <<<<<<<<<<
