Date	2025年07月03日木曜日 09時53分36秒
Spectrometers	SR401765
ダーク	使用
リファレンス	使用
積分時間[msec]	300
平均回数	1
ｽﾑｰｼﾞﾝｸﾞ	5
Electrical Dark	USE
ピクセル数	3648
計測モード	反射率
保存開始波長[nm]	598.495
保存終了波長[nm]	1274.802
保存ﾋﾟｯﾁ波長[nm]	全波長

>>>>>>>>>> Data Start <<<<<<<<<<<<
598.495	133.333333
598.713	133.333333
598.931	133.333333
599.148	133.333333
599.366	0.000000
599.584	0.000000
599.802	754.135849
600.020	165.604817
600.238	226.852021
600.455	219.787830
600.673	99.898128
600.891	26.895386
601.109	23.279936
601.326	22.748462
601.544	22.253551
601.762	22.757522
601.979	23.036604
602.197	23.088758
602.415	23.064046
602.632	23.128437
602.850	23.298520
603.067	23.535164
603.285	23.770948
603.502	23.958479
603.720	23.989581
603.938	24.068792
604.155	24.190083
604.372	24.352349
604.590	24.470481
604.807	24.675236
605.025	24.665480
605.242	24.729794
605.460	24.763742
605.677	24.759964
605.894	24.936613
606.112	25.408819
606.329	25.674534
606.546	25.838391
606.764	26.020462
606.981	26.031279
607.198	26.113861
607.415	26.436194
607.633	26.620992
607.850	26.666394
608.067	26.728391
608.284	26.730434
608.501	26.667657
608.718	26.836836
608.935	26.926353
609.153	27.016850
609.370	27.258941
609.587	27.368389
609.804	27.475488
610.021	27.659165
610.238	28.015188
610.455	28.276647
610.672	28.573136
610.889	28.625496
611.106	28.637244
611.323	28.806026
611.540	29.077889
611.756	29.317482
611.973	29.460863
612.190	29.555009
612.407	29.720750
612.624	29.848024
612.841	30.079727
613.057	30.213036
613.274	30.457898
613.491	30.865084
613.708	31.223518
613.925	31.257950
614.141	31.272371
614.358	31.646698
614.575	31.962774
614.791	32.094417
615.008	32.308061
615.225	32.645807
615.441	32.943377
615.658	33.255426
615.874	33.302317
616.091	33.336889
616.307	33.748113
616.524	34.148101
616.740	34.262811
616.957	34.405636
617.173	34.536461
617.390	34.610530
617.606	34.649303
617.823	34.892516
618.039	35.167093
618.256	35.525674
618.472	35.727915
618.688	35.702652
618.905	35.704429
619.121	35.854839
619.337	36.166735
619.554	36.535031
619.770	36.888958
619.986	36.971645
620.202	36.954960
620.419	37.231278
620.635	37.618364
620.851	38.115273
621.067	38.569534
621.283	38.882928
621.499	39.120951
621.716	39.250147
621.932	39.365089
622.148	39.623582
622.364	40.043579
622.580	40.419706
622.796	40.462227
623.012	40.407839
623.228	40.350398
623.444	40.378257
623.660	40.671190
623.876	40.936316
624.092	41.170119
624.308	41.493886
624.524	41.718197
624.740	41.854693
624.955	41.976069
625.171	42.108733
625.387	42.220160
625.603	42.460351
625.819	42.693832
626.034	42.853485
626.250	43.108572
626.466	43.300942
626.682	43.339373
626.897	43.235774
627.113	43.301948
627.329	43.578397
627.544	43.805309
627.760	44.055646
627.976	44.190537
628.191	44.466531
628.407	44.900293
628.623	45.259567
628.838	45.582871
629.054	46.033401
629.269	46.506326
629.485	46.873540
629.700	47.098924
629.916	47.498641
630.131	47.908786
630.347	48.239813
630.562	48.380920
630.777	48.368734
630.993	48.415815
631.208	48.514868
631.424	48.602826
631.639	48.907554
631.854	49.147543
632.070	49.343397
632.285	49.450493
632.500	49.577588
632.715	49.716989
632.931	49.874916
633.146	50.038551
633.361	50.204474
633.576	50.555071
633.791	50.860368
634.007	50.877801
634.222	50.882134
634.437	50.775378
634.652	50.754606
634.867	50.819074
635.082	51.122078
635.297	51.587411
635.512	51.975885
635.727	52.230200
635.942	52.298381
636.157	52.355640
636.372	52.496951
636.587	52.739432
636.802	53.057229
637.017	53.357891
637.232	53.620165
637.447	53.791947
637.662	54.031245
637.876	54.291139
638.091	54.492867
638.306	54.730083
638.521	54.910931
638.736	55.202413
638.951	55.503978
639.165	55.800089
639.380	56.057897
639.595	56.182368
639.809	56.171043
640.024	56.076748
640.239	56.117730
640.453	56.313653
640.668	56.603230
640.883	56.849778
641.097	56.956900
641.312	57.076068
641.526	57.378049
641.741	57.616909
641.955	57.855665
642.170	58.081668
642.384	58.089853
642.599	57.997771
642.813	57.975897
643.028	57.965797
643.242	58.011498
643.457	58.175018
643.671	58.384896
643.885	58.468165
644.100	58.527359
644.314	58.643417
644.528	58.872650
644.743	59.157813
644.957	59.351370
645.171	59.571699
645.386	59.699185
645.600	59.964022
645.814	60.043819
646.028	60.052001
646.242	59.967287
646.457	59.904046
646.671	59.933176
646.885	60.041482
647.099	60.257584
647.313	60.484820
647.527	60.683948
647.741	60.880365
647.955	61.016811
648.169	61.415892
648.383	61.710968
648.597	62.031115
648.811	62.250025
649.025	62.409043
649.239	62.566031
649.453	62.793010
649.667	62.956188
649.881	63.138533
650.095	63.477442
650.309	63.686372
650.523	63.660846
650.737	63.717797
650.950	63.997565
651.164	64.384088
651.378	64.596319
651.592	64.566062
651.805	64.398323
652.019	64.663562
652.233	64.999502
652.447	64.986916
652.660	64.924437
652.874	64.944018
653.088	65.038936
653.301	64.934655
653.515	64.739574
653.728	64.574351
653.942	64.652832
654.156	64.824084
654.369	64.741037
654.583	64.663373
654.796	64.934706
655.010	65.368425
655.223	65.642642
655.437	65.691635
655.650	65.931154
655.863	66.257248
656.077	66.549803
656.290	66.703072
656.504	66.784700
656.717	66.908839
656.930	67.112628
657.144	66.970947
657.357	66.894656
657.570	67.184287
657.783	67.451621
657.997	67.472955
658.210	67.497280
658.423	67.597060
658.636	67.746745
658.849	67.868502
659.063	67.971805
659.276	67.782431
659.489	67.772406
659.702	67.957296
659.915	67.916878
660.128	67.876055
660.341	68.064552
660.554	68.393272
660.767	68.710538
660.980	69.008206
661.193	69.291366
661.406	69.512305
661.619	69.837048
661.832	70.224744
662.045	70.419311
662.258	70.533494
662.471	70.746027
662.684	70.886608
662.897	70.783514
663.110	70.550111
663.322	70.319709
663.535	70.214662
663.748	70.149189
663.961	70.290503
664.174	70.203968
664.386	70.040991
664.599	69.991682
664.812	69.973240
665.024	69.855626
665.237	69.826777
665.450	69.957064
665.662	70.161236
665.875	70.343434
666.088	70.474267
666.300	70.414792
666.513	70.424268
666.725	70.418421
666.938	70.438400
667.150	70.452646
667.363	70.671743
667.575	70.840287
667.788	70.866293
668.000	70.969751
668.213	71.014427
668.425	70.959958
668.638	70.836431
668.850	70.841641
669.062	70.892258
669.275	71.001300
669.487	70.991255
669.699	70.829599
669.912	70.820285
670.124	71.014182
670.336	70.977456
670.548	71.004806
670.761	71.149461
670.973	71.213059
671.185	71.329053
671.397	71.402410
671.609	71.421159
671.822	71.462799
672.034	71.567833
672.246	71.773864
672.458	72.001256
672.670	72.348554
672.882	72.640693
673.094	72.705346
673.306	72.801953
673.518	72.720815
673.730	72.732123
673.942	72.900506
674.154	73.302727
674.366	73.659031
674.578	73.744190
674.790	73.635480
675.002	73.513239
675.214	73.387646
675.425	73.350950
675.637	73.366621
675.849	73.445875
676.061	73.374858
676.273	73.358378
676.484	73.291949
676.696	73.131349
676.908	73.264298
677.120	73.526380
677.331	73.716816
677.543	73.910929
677.755	74.104367
677.966	74.345284
678.178	74.624370
678.389	74.847161
678.601	74.711996
678.813	74.565636
679.024	74.582063
679.236	74.439047
679.447	74.229945
679.659	73.839149
679.870	73.365102
680.082	73.181153
680.293	72.994317
680.505	72.885515
680.716	73.144369
680.927	73.425996
681.139	73.596059
681.350	73.776329
681.562	73.881416
681.773	74.010043
681.984	74.288875
682.196	74.587225
682.407	74.684001
682.618	74.712402
682.829	74.695643
683.041	74.500498
683.252	74.702499
683.463	75.047321
683.674	75.238324
683.885	75.446191
684.097	75.495197
684.308	75.606870
684.519	75.621539
684.730	75.450546
684.941	75.313004
685.152	75.234620
685.363	75.251631
685.574	75.074052
685.785	74.878903
685.996	74.572358
686.207	74.051154
686.418	73.822828
686.629	73.756447
686.840	73.814176
687.051	73.943777
687.262	74.200771
687.473	74.382043
687.684	74.357661
687.894	74.341017
688.105	74.352867
688.316	74.678212
688.527	75.229150
688.738	75.564199
688.948	75.638811
689.159	75.747540
689.370	75.822156
689.580	75.838175
689.791	75.993356
690.002	76.051729
690.212	76.012943
690.423	75.875289
690.634	75.684395
690.844	75.601083
691.055	75.604538
691.266	75.708884
691.476	75.651685
691.687	75.735034
691.897	75.899613
692.108	75.924311
692.318	76.122249
692.529	76.190816
692.739	76.201627
692.949	76.181080
693.160	75.996661
693.370	76.078991
693.581	76.295172
693.791	76.557766
694.001	76.599533
694.212	76.334105
694.422	75.961268
694.632	75.671731
694.843	75.534646
695.053	75.583189
695.263	75.679481
695.473	75.929396
695.683	75.979551
695.894	75.753807
696.104	75.498153
696.314	75.353134
696.524	75.362553
696.734	75.658708
696.944	76.025805
697.154	76.348629
697.365	76.501052
697.575	76.365070
697.785	76.201293
697.995	76.002835
698.205	76.065360
698.415	76.223536
698.625	76.362501
698.834	76.493818
699.044	76.441527
699.254	76.286270
699.464	76.265284
699.674	76.346795
699.884	76.548430
700.094	76.615316
700.304	76.465145
700.513	76.161440
700.723	75.791187
700.933	75.665653
701.143	75.807023
701.353	75.912128
701.562	75.901268
701.772	75.713685
701.982	75.628864
702.191	75.595365
702.401	75.608603
702.611	75.823671
702.820	75.933358
703.030	76.169873
703.239	76.340998
703.449	76.232248
703.659	76.024651
703.868	75.817478
704.078	75.752971
704.287	75.530038
704.497	75.258964
704.706	75.028610
704.916	74.860599
705.125	74.914626
705.334	74.928232
705.544	74.979479
705.753	74.983959
705.962	75.053963
706.172	75.169504
706.381	75.379371
706.590	75.683218
706.800	76.022000
707.009	76.303314
707.218	76.382114
707.428	76.340249
707.637	76.339333
707.846	76.245232
708.055	76.179233
708.264	76.216689
708.474	76.343706
708.683	76.271702
708.892	76.110850
709.101	75.872388
709.310	75.703681
709.519	75.639341
709.728	75.479763
709.937	75.326288
710.146	75.379151
710.355	75.611107
710.564	75.794588
710.773	75.890861
710.982	76.030196
711.191	76.227841
711.400	76.446431
711.609	76.442986
711.818	76.373106
712.027	76.424285
712.235	76.721401
712.444	76.958256
712.653	77.125483
712.862	77.206811
713.071	77.260752
713.279	77.141477
713.488	76.825538
713.697	76.501640
713.906	76.464605
714.114	76.679387
714.323	76.926896
714.532	76.772317
714.740	76.414808
714.949	75.998312
715.157	75.667924
715.366	75.398718
715.575	75.428912
715.783	75.653986
715.992	75.750017
716.200	75.679154
716.409	75.419434
716.617	75.159844
716.826	75.053561
717.034	75.034077
717.242	75.112394
717.451	75.081117
717.659	74.904397
717.868	74.640052
718.076	74.418571
718.284	74.374087
718.493	74.419862
718.701	74.578565
718.909	74.709284
719.118	74.844577
719.326	74.947121
719.534	74.940209
719.742	74.977910
719.951	75.288183
720.159	75.610681
720.367	75.865690
720.575	75.910534
720.783	75.895544
720.991	76.029807
721.199	76.046430
721.408	75.895599
721.616	75.869271
721.824	75.808089
722.032	75.836683
722.240	75.656096
722.448	75.335832
722.656	74.962213
722.864	74.827817
723.072	74.783771
723.280	74.461777
723.487	74.294123
723.695	74.162180
723.903	74.086431
724.111	74.250634
724.319	74.309348
724.527	74.239805
724.735	74.307159
724.942	74.470876
725.150	74.480453
725.358	74.301920
725.566	74.229267
725.773	74.252734
725.981	74.314644
726.189	74.103193
726.396	73.775638
726.604	73.594265
726.812	73.575479
727.019	73.506485
727.227	73.386080
727.435	73.423570
727.642	73.492334
727.850	73.438336
728.057	73.285928
728.265	73.144867
728.472	73.197239
728.680	73.280435
728.887	73.206016
729.095	73.066186
729.302	72.946084
729.509	72.708643
729.717	72.499555
729.924	72.432034
730.132	72.589417
730.339	72.684994
730.546	72.729829
730.753	72.709298
730.961	72.553807
731.168	72.483963
731.375	72.467140
731.583	72.377107
731.790	72.480690
731.997	72.469428
732.204	72.483009
732.411	72.441332
732.618	72.184435
732.826	72.035722
733.033	71.917481
733.240	71.713696
733.447	71.426797
733.654	71.370963
733.861	71.459436
734.068	71.357012
734.275	71.307158
734.482	71.177289
734.689	71.161542
734.896	71.557573
735.103	71.944074
735.310	72.231812
735.517	72.573091
735.724	72.828382
735.931	72.696031
736.137	72.546040
736.344	72.576729
736.551	72.656478
736.758	72.794996
736.965	72.773195
737.171	72.436299
737.378	72.090285
737.585	71.759250
737.792	71.482087
737.998	71.282656
738.205	71.315944
738.412	71.493544
738.618	71.538190
738.825	71.378184
739.032	71.149765
739.238	70.932523
739.445	70.912980
739.651	70.689627
739.858	70.528008
740.064	70.482090
740.271	70.638225
740.477	70.688596
740.684	70.452533
740.890	70.287844
741.097	70.233104
741.303	70.168726
741.510	69.981466
741.716	69.720821
741.922	69.605559
742.129	69.751297
742.335	69.889158
742.541	69.746061
742.748	69.518937
742.954	69.391707
743.160	69.395544
743.366	69.507983
743.573	69.598354
743.779	69.748821
743.985	69.895629
744.191	70.071994
744.397	69.848574
744.604	69.456678
744.810	69.241058
745.016	69.113583
745.222	69.000785
745.428	68.594354
745.634	68.264125
745.840	68.101645
746.046	67.685328
746.252	67.310458
746.458	67.025488
746.664	67.028968
746.870	67.163263
747.076	67.218966
747.282	67.286969
747.488	67.215214
747.694	67.184515
747.900	67.097019
748.105	66.945917
748.311	67.092000
748.517	67.312024
748.723	67.472964
748.929	67.291677
749.134	67.004740
749.340	66.841502
749.546	66.690202
749.752	66.661336
749.957	66.766457
750.163	66.746415
750.369	66.542926
750.574	66.231489
750.780	65.986025
750.985	65.909175
751.191	65.994660
751.397	66.210107
751.602	66.462471
751.808	66.631582
752.013	66.696540
752.219	66.634226
752.424	66.516135
752.630	66.700368
752.835	67.036305
753.041	67.075159
753.246	66.867789
753.451	66.673780
753.657	66.285095
753.862	65.795818
754.067	65.408929
754.273	64.979300
754.478	64.626102
754.683	64.520118
754.889	64.316265
755.094	64.114872
755.299	63.930699
755.504	63.776678
755.710	63.685758
755.915	63.645597
756.120	63.444404
756.325	63.236242
756.530	63.177297
756.735	63.231350
756.940	63.227023
757.146	63.143126
757.351	62.986814
757.556	62.906154
757.761	62.674792
757.966	62.340509
758.171	62.114283
758.376	62.023434
758.581	61.875629
758.786	61.779909
758.990	61.518756
759.195	61.212429
759.400	60.843137
759.605	60.467308
759.810	60.107727
760.015	59.843194
760.220	59.728198
760.424	59.640585
760.629	59.523938
760.834	59.480352
761.039	59.506842
761.244	59.676787
761.448	59.602443
761.653	59.445482
761.858	59.371298
762.062	59.256200
762.267	59.072786
762.472	58.853507
762.676	58.486981
762.881	58.148798
763.085	57.894683
763.290	57.500750
763.494	56.957111
763.699	56.554674
763.903	56.338252
764.108	56.227699
764.312	56.139023
764.517	56.088751
764.721	55.955185
764.926	55.970259
765.130	56.107636
765.335	55.987411
765.539	55.898450
765.743	55.977782
765.948	55.935079
766.152	55.690110
766.356	55.388063
766.560	55.075047
766.765	54.759257
766.969	54.454840
767.173	54.128466
767.377	53.713266
767.582	53.590632
767.786	53.401174
767.990	53.046211
768.194	52.863503
768.398	52.800771
768.602	52.633615
768.806	52.471755
769.010	52.564900
769.215	52.653779
769.419	52.564537
769.623	52.403085
769.827	52.102951
770.031	51.831401
770.234	51.522194
770.438	51.202424
770.642	50.991920
770.846	50.851751
771.050	50.581181
771.254	50.107519
771.458	49.597906
771.662	49.322991
771.866	49.064025
772.069	48.797458
772.273	48.607305
772.477	48.291019
772.681	47.861722
772.885	47.512650
773.088	47.011729
773.292	46.637789
773.496	46.379080
773.699	46.284968
773.903	46.076134
774.107	45.800118
774.310	45.525920
774.514	45.021477
774.717	44.675817
774.921	44.468486
775.124	44.202165
775.328	44.059538
775.531	43.959444
775.735	43.764029
775.938	43.531498
776.142	43.255345
776.345	42.944191
776.549	42.681314
776.752	42.603868
776.956	42.607814
777.159	42.540476
777.362	42.429142
777.566	42.154870
777.769	41.865973
777.972	41.622198
778.176	41.233228
778.379	40.893561
778.582	40.795060
778.785	40.542265
778.989	40.210413
779.192	39.808704
779.395	39.410458
779.598	39.039609
779.801	38.796900
780.004	38.456214
780.207	38.093115
780.411	37.782664
780.614	37.481397
780.817	37.053135
781.020	36.562268
781.223	36.166500
781.426	35.885938
781.629	35.722166
781.832	35.430691
782.035	35.109268
782.238	34.802635
782.440	34.511428
782.643	34.143926
782.846	33.765159
783.049	33.481169
783.252	33.331876
783.455	33.243884
783.658	33.043232
783.860	32.572422
784.063	32.168744
784.266	31.816163
784.469	31.475706
784.671	31.162551
784.874	30.942765
785.077	30.794193
785.279	30.515593
785.482	30.197471
785.685	29.864458
785.887	29.543292
786.090	29.375282
786.293	29.200503
786.495	28.940712
786.698	28.753901
786.900	28.418939
787.103	28.040161
787.305	27.517149
787.508	27.019739
787.710	26.643274
787.913	26.145914
788.115	25.634806
788.317	25.186746
788.520	24.726680
788.722	24.281460
788.924	23.804726
789.127	23.347675
789.329	22.912201
789.531	22.612466
789.734	22.398003
789.936	22.125488
790.138	21.800595
790.340	21.534607
790.543	21.231839
790.745	20.904224
790.947	20.615034
791.149	20.350019
791.351	20.169112
791.553	19.995214
791.756	19.770679
791.958	19.500064
792.160	19.235557
792.362	18.990277
792.564	18.909795
792.766	18.781386
792.968	18.641978
793.170	18.407258
793.372	18.112847
793.574	17.814924
793.776	17.548685
793.978	17.292297
794.180	17.075733
794.381	16.789731
794.583	16.575286
794.785	16.281570
794.987	16.040672
795.189	15.769707
795.391	15.468335
795.592	15.257599
795.794	15.101947
795.996	14.861720
796.198	14.534538
796.399	14.149054
796.601	13.956493
796.803	13.611892
797.004	13.176837
797.206	12.877681
797.407	12.587595
797.609	12.426200
797.811	12.285978
798.012	12.077833
798.214	11.873739
798.415	11.811814
798.617	11.759819
798.818	11.556576
799.020	11.562397
799.221	11.561969
799.423	11.393110
799.624	11.284246
799.826	11.197239
800.027	11.058283
800.228	10.956286
800.430	10.834855
800.631	10.615597
800.832	10.472743
801.034	10.389678
801.235	10.221677
801.436	10.053122
801.637	9.787658
801.839	9.556262
802.040	9.423091
802.241	9.293128
802.442	9.078703
802.643	8.955515
802.844	8.864877
803.046	8.700776
803.247	8.644450
803.448	8.549912
803.649	8.362847
803.850	8.448240
804.051	8.530761
804.252	8.510642
804.453	8.482402
804.654	8.448397
804.855	8.430669
805.056	8.489300
805.257	8.542854
805.458	8.486489
805.659	8.521223
805.859	8.631401
806.060	8.655359
806.261	8.638402
806.462	8.572335
806.663	8.474264
806.864	8.518572
807.064	8.565150
807.265	8.568202
807.466	8.573245
807.667	8.549336
807.867	8.419441
808.068	8.312364
808.269	8.241613
808.469	8.298768
808.670	8.397411
808.870	8.472044
809.071	8.517039
809.272	8.626940
809.472	8.790958
809.673	8.944038
809.873	9.143069
810.074	9.414298
810.274	9.661062
810.475	9.885438
810.675	9.951685
810.876	10.070453
811.076	10.291494
811.276	10.393233
811.477	10.411487
811.677	10.400110
811.878	10.459095
812.078	10.495236
812.278	10.462828
812.479	10.493531
812.679	10.506806
812.879	10.625496
813.079	10.723592
813.280	10.768475
813.480	10.965885
813.680	11.283087
813.880	11.408742
814.080	11.458639
814.280	11.545536
814.480	11.735831
814.681	11.929597
814.881	12.154904
815.081	12.347834
815.281	12.522836
815.481	12.798558
815.681	13.083645
815.881	13.188209
816.081	13.361049
816.281	13.685160
816.481	14.053947
816.681	14.350291
816.880	14.699206
817.080	14.957108
817.280	15.133993
817.480	15.340224
817.680	15.534124
817.880	15.850081
818.080	16.098941
818.279	16.404079
818.479	16.612773
818.679	16.769613
818.879	16.908243
819.078	17.057076
819.278	17.261684
819.478	17.562431
819.677	17.878449
819.877	18.184752
820.077	18.357410
820.276	18.735455
820.476	19.039045
820.675	19.264597
820.875	19.569090
821.074	20.100726
821.274	20.513923
821.473	20.835499
821.673	21.083113
821.872	21.131777
822.072	21.203855
822.271	21.302599
822.471	21.362581
822.670	21.478313
822.869	21.625215
823.069	21.619959
823.268	21.582268
823.467	21.586274
823.667	21.691312
823.866	21.946386
824.065	22.373754
824.265	22.740859
824.464	23.062723
824.663	23.438567
824.862	23.922426
825.061	24.260159
825.261	24.731731
825.460	25.105085
825.659	25.407785
825.858	25.708286
826.057	25.797539
826.256	25.976401
826.455	26.233323
826.654	26.510569
826.853	26.718924
827.052	26.783186
827.251	27.083072
827.450	27.387138
827.649	27.693694
827.848	27.991740
828.047	28.277660
828.246	28.654742
828.445	28.886193
828.644	29.083903
828.843	29.179296
829.041	29.357782
829.240	29.677543
829.439	29.913620
829.638	30.122319
829.836	30.263932
830.035	30.496900
830.234	30.839715
830.433	31.086846
830.631	31.268142
830.830	31.417903
831.029	31.736176
831.227	31.896280
831.426	31.994033
831.624	32.239822
831.823	32.524351
832.022	32.794810
832.220	33.039453
832.419	33.170368
832.617	33.429588
832.816	33.602178
833.014	33.771595
833.213	33.847653
833.411	34.100149
833.609	34.319257
833.808	34.454096
834.006	34.489513
834.205	34.575460
834.403	34.874861
834.601	35.068523
834.800	35.193704
834.998	35.453759
835.196	35.815055
835.394	36.143934
835.593	36.515272
835.791	36.783196
835.989	36.999923
836.187	37.359048
836.385	37.664412
836.584	37.709619
836.782	37.920181
836.980	38.325228
837.178	38.924444
837.376	39.266107
837.574	39.553754
837.772	39.649537
837.970	39.789759
838.168	40.147156
838.366	40.375925
838.564	40.793822
838.762	41.303137
838.960	41.579110
839.158	41.748381
839.356	41.826698
839.554	41.951771
839.752	42.214791
839.949	42.453831
840.147	42.672618
840.345	42.819913
840.543	43.002676
840.741	43.038199
840.938	42.886837
841.136	43.045517
841.334	43.297175
841.532	43.403178
841.729	43.375145
841.927	43.457739
842.125	43.800613
842.322	44.095282
842.520	44.243840
842.718	44.244750
842.915	44.343438
843.113	44.546267
843.310	44.589380
843.508	44.665729
843.705	44.766084
843.903	45.185080
844.100	45.503582
844.298	45.555675
844.495	45.775468
844.693	46.058272
844.890	46.363528
845.087	46.499983
845.285	46.741481
845.482	47.023010
845.679	47.125705
845.877	47.438134
846.074	47.754871
846.271	47.932072
846.469	47.933107
846.666	47.895274
846.863	47.782610
847.060	47.656226
847.257	47.674242
847.455	47.846907
847.652	48.073191
847.849	48.217611
848.046	48.271307
848.243	48.166353
848.440	48.211785
848.637	48.616136
848.834	48.995319
849.031	49.223359
849.228	49.510218
849.425	49.609954
849.622	49.626192
849.819	49.680742
850.016	49.907728
850.213	50.193566
850.410	50.557781
850.607	50.793237
850.804	51.121671
851.001	51.318159
851.198	51.775263
851.394	52.147059
851.591	52.602330
851.788	53.172884
851.985	53.564778
852.181	53.759995
852.378	53.824700
852.575	53.881817
852.772	54.006329
852.968	53.664514
853.165	53.390694
853.362	53.071436
853.558	52.992330
853.755	53.087415
853.951	52.731045
854.148	52.521965
854.345	52.541119
854.541	52.696067
854.738	52.900119
854.934	53.157336
855.131	53.726440
855.327	54.224274
855.523	54.513149
855.720	54.998475
855.916	55.536666
856.113	56.236768
856.309	56.708608
856.505	57.000070
856.702	57.003315
856.898	56.705154
857.094	56.227604
857.291	56.069171
857.487	56.358215
857.683	56.705110
857.879	56.657037
858.076	56.408996
858.272	56.058966
858.468	56.013074
858.664	56.076426
858.860	56.080901
859.056	56.563637
859.253	57.061857
859.449	56.925028
859.645	56.422636
859.841	56.303232
860.037	56.574368
860.233	56.807102
860.429	57.134051
860.625	57.308417
860.821	57.431969
861.017	57.605606
861.213	57.422406
861.409	57.593745
861.604	58.120767
861.800	58.505536
861.996	58.696439
862.192	58.624528
862.388	58.776899
862.584	58.940304
862.779	58.954854
862.975	59.136497
863.171	59.483506
863.367	59.902939
863.562	59.936006
863.758	59.936185
863.954	60.328016
864.149	60.675378
864.345	60.365101
864.541	59.919645
864.736	59.715838
864.932	59.677939
865.127	59.435836
865.323	59.045850
865.518	58.595170
865.714	58.294264
865.910	57.981505
866.105	57.603115
866.300	57.390022
866.496	57.835580
866.691	58.302974
866.887	58.572108
867.082	58.677567
867.277	58.792515
867.473	58.885026
867.668	59.068131
867.864	59.403611
868.059	59.740329
868.254	60.049563
868.449	60.055015
868.645	60.098752
868.840	60.073254
869.035	60.109661
869.230	60.327978
869.425	60.731047
869.621	61.170036
869.816	61.399459
870.011	61.457683
870.206	61.480626
870.401	61.395504
870.596	61.415366
870.791	61.302442
870.986	61.286771
871.181	60.902717
871.376	60.508225
871.571	60.233885
871.766	60.148508
871.961	60.260070
872.156	60.469894
872.351	60.782597
872.546	61.009606
872.741	61.529316
872.936	62.153190
873.130	62.602951
873.325	63.161775
873.520	63.578468
873.715	63.662536
873.910	63.566298
874.104	63.479327
874.299	63.463345
874.494	63.253921
874.688	63.271290
874.883	63.023504
875.078	62.727702
875.272	62.744616
875.467	62.791785
875.662	62.882996
875.856	63.040488
876.051	63.376953
876.245	63.770611
876.440	64.097264
876.634	64.526595
876.829	64.660514
877.023	64.625053
877.218	64.501531
877.412	64.282138
877.607	64.254273
877.801	64.337508
877.995	64.567502
878.190	64.852292
878.384	64.887068
878.578	64.626048
878.773	64.321299
878.967	64.500971
879.161	64.657756
879.356	64.676646
879.550	64.698546
879.744	64.922975
879.938	64.978176
880.133	64.835011
880.327	64.418737
880.521	64.385908
880.715	64.418687
880.909	64.520238
881.103	64.434700
881.297	64.454706
881.491	64.713922
881.685	64.768855
881.880	64.516013
882.073	64.701675
882.267	65.396418
882.461	66.167452
882.655	66.545647
882.849	66.909178
883.043	67.066021
883.237	67.320671
883.431	67.748544
883.625	68.031875
883.819	68.168363
884.013	68.629114
884.206	68.571615
884.400	67.955676
884.594	67.466560
884.788	67.153628
884.982	66.833134
885.175	66.774382
885.369	66.603797
885.563	66.431027
885.756	66.432484
885.950	66.761648
886.144	66.759337
886.337	66.805435
886.531	66.720791
886.724	66.825648
886.918	67.091055
887.112	67.304225
887.305	67.345268
887.499	67.276857
887.692	67.145021
887.885	67.056740
888.079	66.967265
888.272	66.744730
888.466	66.671045
888.659	67.075603
888.853	67.433567
889.046	67.468825
889.239	67.673881
889.433	67.925973
889.626	68.317565
889.819	68.467591
890.013	68.399653
890.206	68.345359
890.399	68.390403
890.592	68.588621
890.785	68.672074
890.979	68.630542
891.172	68.756608
891.365	68.819092
891.558	68.855182
891.751	68.806350
891.944	68.757709
892.137	68.971400
892.330	68.984025
892.524	68.798849
892.717	68.703423
892.910	68.545877
893.103	68.321795
893.296	68.294612
893.488	68.580544
893.681	68.924317
893.874	69.220246
894.067	69.687499
894.260	69.655126
894.453	69.291694
894.646	69.562918
894.839	69.704999
895.031	69.834606
895.224	69.609208
895.417	69.476824
895.610	69.430413
895.802	69.399423
895.995	69.055793
896.188	68.660394
896.381	68.636820
896.573	69.005843
896.766	69.261778
896.958	69.292687
897.151	69.446997
897.344	69.913535
897.536	70.162440
897.729	70.200079
897.921	69.865988
898.114	69.700161
898.306	69.811471
898.499	69.990122
898.691	70.164126
898.884	70.096621
899.076	70.218145
899.269	69.862657
899.461	69.913994
899.653	70.125726
899.846	70.175375
900.038	70.462632
900.230	70.701209
900.423	70.863102
900.615	70.878676
900.807	71.335814
901.000	71.733669
901.192	71.716472
901.384	71.903356
901.576	71.801370
901.768	71.525501
901.961	71.170339
902.153	70.950143
902.345	70.725925
902.537	70.485085
902.729	70.452175
902.921	70.225397
903.113	69.901753
903.305	70.045127
903.497	70.510568
903.689	70.567194
903.881	70.504854
904.073	70.462087
904.265	70.344878
904.457	70.463110
904.649	70.655684
904.841	70.878441
905.033	71.154581
905.224	71.546390
905.416	71.377113
905.608	70.890463
905.800	70.671721
905.992	70.493875
906.183	70.843509
906.375	71.149212
906.567	71.682311
906.759	71.950249
906.950	71.848362
907.142	71.468315
907.334	70.697089
907.525	70.490675
907.717	70.478235
907.909	70.858813
908.100	70.881982
908.292	70.450470
908.483	69.983584
908.675	69.622425
908.866	69.483337
909.058	69.670185
909.249	70.084834
909.441	70.794113
909.632	71.158178
909.824	71.236762
910.015	71.067719
910.206	71.229944
910.398	71.417309
910.589	71.736392
910.780	71.878044
910.972	72.307140
911.163	72.333321
911.354	71.829482
911.546	71.313597
911.737	71.110567
911.928	71.269940
912.119	71.198004
912.310	71.392231
912.502	71.787648
912.693	71.844465
912.884	71.873521
913.075	71.516569
913.266	71.367137
913.457	71.716724
913.648	72.149975
913.839	72.318299
914.030	72.542605
914.221	72.821026
914.412	72.741403
914.603	72.705971
914.794	73.165944
914.985	73.557504
915.176	73.895889
915.367	73.951993
915.558	73.824403
915.749	74.143131
915.940	74.462729
916.130	74.238018
916.321	74.234827
916.512	74.311254
916.703	74.255439
916.893	74.049224
917.084	73.699240
917.275	73.111052
917.466	72.879084
917.656	72.907942
917.847	72.354097
918.038	71.807371
918.228	71.617665
918.419	71.502618
918.609	71.379019
918.800	71.041512
918.990	71.036580
919.181	71.209055
919.372	71.885775
919.562	72.448373
919.753	73.082221
919.943	73.825717
920.133	74.239078
920.324	74.577991
920.514	74.921390
920.705	75.201152
920.895	75.372836
921.085	75.049108
921.276	74.799848
921.466	74.812881
921.656	74.625227
921.847	73.997947
922.037	73.636702
922.227	73.639833
922.417	73.739275
922.608	73.818728
922.798	73.942779
922.988	74.076360
923.178	74.418212
923.368	74.611503
923.558	74.609634
923.748	75.137519
923.939	75.329606
924.129	74.991604
924.319	74.799313
924.509	74.719098
924.699	74.660822
924.889	74.342873
925.079	74.248121
925.269	74.052541
925.459	73.848107
925.648	73.447464
925.838	72.936248
926.028	73.098404
926.218	73.547240
926.408	73.617269
926.598	73.396509
926.788	73.096337
926.977	72.979979
927.167	73.008626
927.357	73.177973
927.547	73.515759
927.736	73.951059
927.926	74.450726
928.116	74.565476
928.305	74.845048
928.495	75.259072
928.685	75.365302
928.874	75.539340
929.064	76.045765
929.253	76.170757
929.443	76.556445
929.633	76.766125
929.822	76.374006
930.012	75.842301
930.201	75.571672
930.391	75.046933
930.580	74.863008
930.769	75.180733
930.959	75.163393
931.148	75.185519
931.338	75.497977
931.527	75.415355
931.716	75.346011
931.906	75.391134
932.095	75.732439
932.284	75.891401
932.474	76.245439
932.663	76.546877
932.852	76.431945
933.041	76.362529
933.230	75.994165
933.420	75.891782
933.609	75.720174
933.798	75.596721
933.987	75.637428
934.176	75.410724
934.365	75.759892
934.554	75.991838
934.743	76.341412
934.932	76.787030
935.121	77.078312
935.310	77.559840
935.499	77.442046
935.688	77.802896
935.877	77.680102
936.066	77.717839
936.255	77.706176
936.444	77.246287
936.633	77.083944
936.822	76.651174
937.010	76.457646
937.199	76.179345
937.388	76.088721
937.577	76.122595
937.766	75.716442
937.954	75.806735
938.143	75.873551
938.332	75.990955
938.520	76.186260
938.709	76.119479
938.898	75.848316
939.086	75.809116
939.275	76.210476
939.464	76.194718
939.652	76.326265
939.841	76.049885
940.029	75.871168
940.218	75.747627
940.406	75.374685
940.595	75.268248
940.783	75.053384
940.972	75.293679
941.160	75.429510
941.349	75.615777
941.537	76.084642
941.725	76.196349
941.914	76.999685
942.102	77.391677
942.290	77.585067
942.479	77.712251
942.667	77.748890
942.855	77.834789
943.043	77.783282
943.232	77.589345
943.420	77.026016
943.608	76.675908
943.796	76.567340
943.984	75.971805
944.172	75.954500
944.361	76.267319
944.549	76.622696
944.737	76.631332
944.925	76.637754
945.113	76.952980
945.301	77.061273
945.489	77.570497
945.677	77.345398
945.865	77.165807
946.053	77.872467
946.241	77.814224
946.429	77.423337
946.617	77.211993
946.805	77.260498
946.992	77.569088
947.180	77.078090
947.368	76.960920
947.556	77.085223
947.744	77.192099
947.931	77.373807
948.119	76.881928
948.307	76.743804
948.495	76.958973
948.682	76.850750
948.870	76.430748
949.058	76.245086
949.245	76.395546
949.433	76.271315
949.621	76.128347
949.808	76.616278
949.996	76.651176
950.183	76.833573
950.371	77.327067
950.558	77.743812
950.746	77.967400
950.933	78.593134
951.121	78.873301
951.308	79.366599
951.496	80.159681
951.683	80.093114
951.870	80.204465
952.058	80.552229
952.245	80.490653
952.433	80.570030
952.620	80.591416
952.807	80.723197
952.994	80.434022
953.182	80.666939
953.369	80.563214
953.556	79.911195
953.743	79.625674
953.931	79.075289
954.118	78.911625
954.305	79.009182
954.492	78.253325
954.679	77.193906
954.866	76.825366
955.053	76.971515
955.240	76.483556
955.427	75.993922
955.615	75.783339
955.802	75.910185
955.989	76.272827
956.175	76.158087
956.362	76.200624
956.549	76.555634
956.736	77.125457
956.923	77.689418
957.110	78.113849
957.297	77.896207
957.484	78.104300
957.671	78.532703
957.857	78.971440
958.044	78.572785
958.231	78.698589
958.418	78.864079
958.604	78.993411
958.791	79.142762
958.978	79.328963
959.165	78.863368
959.351	79.363178
959.538	79.583697
959.724	79.139742
959.911	78.387893
960.098	77.904953
960.284	77.811966
960.471	77.499387
960.657	77.133842
960.844	76.826546
961.030	75.621728
961.217	74.725993
961.403	74.414689
961.590	74.503636
961.776	74.735827
961.963	75.115145
962.149	75.736256
962.335	76.041261
962.522	76.666841
962.708	76.884257
962.894	77.127261
963.081	78.569361
963.267	80.251728
963.453	80.928704
963.639	80.748500
963.826	80.794032
964.012	80.801468
964.198	80.804854
964.384	80.508418
964.570	79.544205
964.756	79.636601
964.943	80.107811
965.129	79.401532
965.315	78.105050
965.501	76.951558
965.687	76.773849
965.873	76.844170
966.059	76.978002
966.245	76.937111
966.431	77.096406
966.617	77.393952
966.803	77.284464
966.989	77.080173
967.174	78.113125
967.360	79.148988
967.546	79.794737
967.732	79.596128
967.918	79.706725
968.104	80.415822
968.289	80.417555
968.475	80.109001
968.661	80.368320
968.847	80.521379
969.032	80.347439
969.218	79.535031
969.404	78.904006
969.589	79.121455
969.775	79.860951
969.961	79.858893
970.146	79.433078
970.332	80.047705
970.517	80.860498
970.703	80.984495
970.888	81.182529
971.074	81.634971
971.260	81.603602
971.445	81.728666
971.630	81.626396
971.816	81.352581
972.001	81.371883
972.187	81.317994
972.372	80.991044
972.557	80.493285
972.743	80.379594
972.928	80.014682
973.113	79.142475
973.299	78.889371
973.484	78.707568
973.669	78.559113
973.854	78.424403
974.040	78.936905
974.225	79.329655
974.410	79.581741
974.595	79.735087
974.780	79.525861
974.965	79.838576
975.151	80.598815
975.336	81.007243
975.521	82.107686
975.706	82.538054
975.891	82.538676
976.076	82.209591
976.261	82.124799
976.446	82.029269
976.631	82.455699
976.816	83.131432
977.001	82.847252
977.186	82.383601
977.370	82.503152
977.555	81.932564
977.740	81.940169
977.925	82.739209
978.110	83.025813
978.295	82.441649
978.479	82.219872
978.664	82.083202
978.849	82.092698
979.034	81.724169
979.218	81.978164
979.403	82.654593
979.588	82.592488
979.772	82.339044
979.957	82.067070
980.141	81.871853
980.326	82.036212
980.511	82.068663
980.695	81.679254
980.880	81.055586
981.064	81.800306
981.249	82.232510
981.433	81.298846
981.618	81.685664
981.802	81.755307
981.987	81.195599
982.171	80.811301
982.355	81.018543
982.540	81.474150
982.724	81.905040
982.908	82.047064
983.093	81.963554
983.277	81.087595
983.461	81.428798
983.646	81.148273
983.830	81.545957
984.014	82.092768
984.198	81.506770
984.382	80.664610
984.567	79.644661
984.751	78.958662
984.935	79.516785
985.119	79.903520
985.303	80.813282
985.487	81.091753
985.671	81.306794
985.855	81.044937
986.039	80.405653
986.223	81.545417
986.407	83.161936
986.591	84.244234
986.775	84.838325
986.959	85.119184
987.143	85.028181
987.327	84.363037
987.511	83.432640
987.695	82.964589
987.879	83.009623
988.062	83.672096
988.246	83.486997
988.430	83.001361
988.614	83.371550
988.797	83.666089
988.981	83.914875
989.165	84.198305
989.349	85.124765
989.532	86.126957
989.716	86.323394
989.900	86.813450
990.083	86.510581
990.267	85.884010
990.450	85.905257
990.634	84.924532
990.817	84.053439
991.001	83.000019
991.184	82.445260
991.368	81.581460
991.551	81.254867
991.735	81.794807
991.918	81.362664
992.102	81.968639
992.285	82.735575
992.469	82.464821
992.652	82.726838
992.835	83.876324
993.019	84.227538
993.202	84.232974
993.385	84.623236
993.568	85.530568
993.752	85.512567
993.935	85.620537
994.118	85.678424
994.301	86.577169
994.484	86.778928
994.668	87.587953
994.851	87.697585
995.034	87.845004
995.217	88.286649
995.400	88.587601
995.583	87.565428
995.766	87.827774
995.949	88.101282
996.132	88.390052
996.315	87.838126
996.498	87.935002
996.681	87.243195
996.864	86.295226
997.047	86.985049
997.230	87.259173
997.413	87.019721
997.596	87.373169
997.778	86.961105
997.961	87.753438
998.144	87.894486
998.327	87.751707
998.510	87.421371
998.692	87.080155
998.875	87.834357
999.058	87.858332
999.241	88.200651
999.423	89.409867
999.606	90.405784
999.789	90.781133
999.971	89.849854
1000.154	88.970015
1000.336	88.579774
1000.519	88.160897
1000.701	88.727011
1000.884	88.895711
1001.067	89.613814
1001.249	88.519618
1001.431	86.891848
1001.614	85.549102
1001.796	85.311734
1001.979	85.837690
1002.161	85.969121
1002.344	86.025458
1002.526	86.206767
1002.708	85.975452
1002.891	85.334219
1003.073	83.836161
1003.255	84.675052
1003.438	85.229545
1003.620	85.565487
1003.802	85.501015
1003.984	85.965060
1004.166	86.745712
1004.349	87.628243
1004.531	88.861106
1004.713	89.260376
1004.895	88.782075
1005.077	88.337654
1005.259	87.922341
1005.441	87.738486
1005.623	88.123929
1005.805	88.778441
1005.987	87.618559
1006.169	87.159601
1006.351	86.540691
1006.533	85.909077
1006.715	85.389168
1006.897	85.882274
1007.079	86.587304
1007.261	86.441277
1007.443	86.259271
1007.625	86.059961
1007.806	86.450903
1007.988	87.341822
1008.170	87.761860
1008.352	88.445095
1008.534	88.960530
1008.715	88.918703
1008.897	89.494252
1009.079	89.890678
1009.260	90.695901
1009.442	91.225759
1009.624	91.851879
1009.805	90.723259
1009.987	89.719501
1010.169	89.358972
1010.350	89.077284
1010.532	89.292297
1010.713	89.972407
1010.895	89.699129
1011.076	89.218675
1011.258	88.646942
1011.439	88.923367
1011.621	88.915706
1011.802	89.893305
1011.983	90.456473
1012.165	90.758301
1012.346	90.993805
1012.527	90.428630
1012.709	89.641799
1012.890	89.515190
1013.071	89.975937
1013.253	90.480475
1013.434	91.224575
1013.615	91.312199
1013.796	91.182048
1013.978	91.535212
1014.159	91.391283
1014.340	91.670662
1014.521	92.086367
1014.702	93.730065
1014.883	94.038477
1015.064	92.854877
1015.245	92.893371
1015.427	92.889348
1015.608	92.263101
1015.789	91.371674
1015.970	90.706970
1016.151	91.292703
1016.332	91.210794
1016.512	90.964103
1016.693	90.571904
1016.874	90.736753
1017.055	91.471691
1017.236	92.004417
1017.417	90.517237
1017.598	90.642285
1017.779	91.597226
1017.959	91.261884
1018.140	89.994877
1018.321	89.766118
1018.502	90.110434
1018.682	89.566173
1018.863	89.210640
1019.044	89.609552
1019.224	88.786454
1019.405	89.611318
1019.586	89.796867
1019.766	89.421871
1019.947	90.281396
1020.127	90.686851
1020.308	89.618542
1020.488	88.879376
1020.669	88.988174
1020.849	89.201379
1021.030	89.760579
1021.210	89.122383
1021.391	88.141084
1021.571	87.404839
1021.752	86.802044
1021.932	86.270793
1022.112	86.816811
1022.293	87.399652
1022.473	87.811484
1022.653	87.877384
1022.834	87.612309
1023.014	86.725870
1023.194	87.564171
1023.374	88.064271
1023.555	87.943541
1023.735	88.722425
1023.915	89.674557
1024.095	89.785124
1024.275	90.301590
1024.455	90.395757
1024.635	90.507734
1024.816	90.927757
1024.996	90.662027
1025.176	90.855209
1025.356	91.566158
1025.536	92.093596
1025.716	91.809754
1025.896	91.635156
1026.076	91.974354
1026.256	92.300871
1026.436	92.529988
1026.615	92.912964
1026.795	92.835754
1026.975	92.402302
1027.155	92.254689
1027.335	90.699135
1027.515	90.698403
1027.695	90.810176
1027.874	89.505684
1028.054	88.333052
1028.234	87.180271
1028.413	86.795930
1028.593	87.049197
1028.773	86.405508
1028.953	86.940736
1029.132	85.761621
1029.312	85.916374
1029.491	86.272708
1029.671	85.791336
1029.851	87.084604
1030.030	88.132358
1030.210	89.007548
1030.389	89.120914
1030.569	87.571869
1030.748	87.512387
1030.928	88.010009
1031.107	88.627576
1031.286	89.331889
1031.466	88.355532
1031.645	88.249493
1031.825	87.857380
1032.004	87.987687
1032.183	88.790041
1032.363	89.518870
1032.542	91.114144
1032.721	92.415153
1032.900	92.001844
1033.080	92.007144
1033.259	91.925326
1033.438	93.119289
1033.617	93.597284
1033.796	92.886349
1033.975	92.210968
1034.155	91.596056
1034.334	91.117614
1034.513	89.909290
1034.692	88.930487
1034.871	89.065969
1035.050	89.290253
1035.229	90.845616
1035.408	90.517347
1035.587	90.468731
1035.766	91.287394
1035.945	90.820558
1036.124	91.009053
1036.303	89.618687
1036.481	88.885727
1036.660	89.577099
1036.839	89.704619
1037.018	90.265745
1037.197	89.024039
1037.376	88.598103
1037.554	88.147276
1037.733	87.664767
1037.912	88.398378
1038.091	87.896608
1038.269	89.312633
1038.448	90.640324
1038.627	89.973286
1038.805	90.192510
1038.984	90.569907
1039.162	90.208784
1039.341	89.951808
1039.520	90.076457
1039.698	90.265307
1039.877	89.549793
1040.055	88.485916
1040.234	88.349300
1040.412	88.409196
1040.591	88.881851
1040.769	88.293042
1040.947	87.405647
1041.126	87.147951
1041.304	86.754249
1041.483	86.960396
1041.661	86.872182
1041.839	86.899438
1042.017	87.211325
1042.196	86.968752
1042.374	86.481519
1042.552	85.024642
1042.730	84.519656
1042.909	85.350773
1043.087	86.465778
1043.265	87.474752
1043.443	87.413139
1043.621	87.223918
1043.799	87.273999
1043.978	87.170184
1044.156	86.772031
1044.334	86.287764
1044.512	86.687879
1044.690	87.369953
1044.868	87.716261
1045.046	87.003030
1045.224	86.051843
1045.402	85.885155
1045.580	86.039749
1045.758	86.008105
1045.935	86.651154
1046.113	87.163751
1046.291	87.710537
1046.469	88.534323
1046.647	88.319379
1046.825	87.440627
1047.002	88.264740
1047.180	89.305531
1047.358	89.148971
1047.536	89.742923
1047.713	90.187549
1047.891	90.232006
1048.069	89.950666
1048.246	89.369978
1048.424	88.937351
1048.602	88.193644
1048.779	87.754281
1048.957	86.886920
1049.134	86.828238
1049.312	87.405525
1049.489	86.925246
1049.667	86.839768
1049.844	86.794194
1050.022	87.236669
1050.199	87.990485
1050.377	88.126661
1050.554	88.652182
1050.731	88.633823
1050.909	88.323449
1051.086	87.750578
1051.263	87.323707
1051.441	88.139275
1051.618	88.559022
1051.795	88.803074
1051.973	88.093964
1052.150	87.841670
1052.327	87.969980
1052.504	87.923298
1052.681	87.748006
1052.859	88.121678
1053.036	88.583049
1053.213	89.066492
1053.390	88.598501
1053.567	87.443714
1053.744	87.106198
1053.921	88.340861
1054.098	88.683408
1054.275	88.582184
1054.452	88.616410
1054.629	88.988290
1054.806	88.895272
1054.983	88.291791
1055.160	88.013489
1055.337	88.209211
1055.514	88.364915
1055.691	87.937603
1055.868	86.733968
1056.044	86.037307
1056.221	85.806749
1056.398	85.960287
1056.575	85.589774
1056.751	85.886172
1056.928	86.270351
1057.105	86.181361
1057.282	85.189396
1057.458	85.114287
1057.635	84.631596
1057.812	85.146087
1057.988	84.634195
1058.165	84.732240
1058.341	85.165404
1058.518	85.778199
1058.694	85.719979
1058.871	85.810468
1059.047	86.072500
1059.224	86.067438
1059.401	86.484634
1059.577	87.867282
1059.753	87.810103
1059.930	88.404451
1060.106	88.588732
1060.282	88.515559
1060.459	88.405347
1060.635	87.757919
1060.812	86.581400
1060.988	85.734292
1061.164	86.637408
1061.340	86.258485
1061.517	85.349212
1061.693	84.745623
1061.869	84.465542
1062.045	84.278333
1062.221	83.911371
1062.398	83.381875
1062.574	83.483318
1062.750	84.495139
1062.926	84.954468
1063.102	83.499591
1063.278	82.943750
1063.454	82.799687
1063.630	82.485894
1063.806	82.794249
1063.982	82.702010
1064.158	81.995653
1064.334	81.543196
1064.510	81.126806
1064.686	80.611793
1064.862	80.974984
1065.038	81.563963
1065.214	82.070677
1065.389	82.053263
1065.565	82.193279
1065.741	81.429615
1065.917	81.100566
1066.093	81.472919
1066.268	81.964859
1066.444	82.624320
1066.620	83.189674
1066.795	82.908937
1066.971	83.126391
1067.147	82.969747
1067.322	83.275083
1067.498	83.523991
1067.673	84.247467
1067.849	84.396465
1068.025	84.219119
1068.200	85.275643
1068.376	85.616400
1068.551	85.618843
1068.727	85.418210
1068.902	85.445377
1069.078	85.970588
1069.253	85.787016
1069.428	85.818164
1069.604	85.550596
1069.779	85.081476
1069.954	84.470238
1070.130	83.426804
1070.305	82.847728
1070.480	82.197786
1070.656	82.119248
1070.831	81.657615
1071.006	80.920153
1071.181	80.916244
1071.357	81.229857
1071.532	82.032742
1071.707	82.748662
1071.882	83.689955
1072.057	84.297919
1072.232	84.685159
1072.407	84.103333
1072.582	83.839372
1072.757	84.186442
1072.932	85.106436
1073.107	85.204851
1073.282	84.943054
1073.457	84.258448
1073.632	84.062484
1073.807	84.371145
1073.982	83.673826
1074.157	83.178253
1074.332	83.914794
1074.507	83.673827
1074.682	83.197345
1074.856	82.238125
1075.031	81.661913
1075.206	82.125473
1075.381	82.662882
1075.556	83.104251
1075.730	82.993830
1075.905	83.736159
1076.080	83.430549
1076.254	83.153062
1076.429	84.069674
1076.604	84.499089
1076.778	84.822436
1076.953	85.255331
1077.127	85.292868
1077.302	84.355061
1077.477	83.136915
1077.651	82.412927
1077.826	81.811139
1078.000	82.191205
1078.175	82.165620
1078.349	81.389080
1078.523	80.852997
1078.698	80.555377
1078.872	80.007531
1079.047	79.701654
1079.221	80.060181
1079.395	81.170158
1079.570	80.909875
1079.744	80.251671
1079.918	79.107399
1080.092	78.831110
1080.267	78.256083
1080.441	78.272055
1080.615	78.735661
1080.789	79.960880
1080.963	79.640916
1081.137	79.207353
1081.312	78.939305
1081.486	79.633383
1081.660	80.419271
1081.834	81.307323
1082.008	81.248004
1082.182	82.375105
1082.356	82.644678
1082.530	82.471909
1082.704	81.104035
1082.878	80.366273
1083.052	80.512464
1083.226	80.541277
1083.400	79.937556
1083.573	79.641865
1083.747	80.049715
1083.921	80.256666
1084.095	79.462574
1084.269	79.273170
1084.443	78.567335
1084.616	78.780663
1084.790	79.103391
1084.964	78.925365
1085.138	78.560877
1085.311	78.277684
1085.485	77.574805
1085.659	76.880683
1085.832	76.812369
1086.006	76.555125
1086.179	76.189104
1086.353	76.610785
1086.527	76.579315
1086.700	76.682089
1086.874	77.176751
1087.047	76.874188
1087.221	76.721654
1087.394	77.266241
1087.568	77.844227
1087.741	78.440210
1087.914	78.905667
1088.088	79.530737
1088.261	79.487748
1088.435	79.607333
1088.608	79.595459
1088.781	79.502578
1088.954	79.938233
1089.128	79.912199
1089.301	79.587042
1089.474	78.715296
1089.647	77.828483
1089.821	78.042715
1089.994	78.776013
1090.167	78.993151
1090.340	79.407996
1090.513	79.479702
1090.686	78.817542
1090.859	78.379156
1091.032	78.243313
1091.206	78.271992
1091.379	78.222137
1091.552	78.042419
1091.725	77.388884
1091.898	76.311391
1092.071	75.695656
1092.244	74.854580
1092.416	74.309782
1092.589	73.920685
1092.762	73.584865
1092.935	74.009903
1093.108	73.821990
1093.281	74.098009
1093.453	74.676084
1093.626	75.189002
1093.799	74.929255
1093.972	75.526871
1094.145	76.273177
1094.317	76.896920
1094.490	77.213125
1094.663	77.021565
1094.835	76.243512
1095.008	75.943208
1095.181	75.587439
1095.353	75.426363
1095.526	75.570280
1095.698	75.577912
1095.871	75.236457
1096.043	74.633174
1096.216	74.081864
1096.388	74.104393
1096.561	73.985297
1096.733	73.790902
1096.906	74.459785
1097.078	74.855387
1097.250	74.686068
1097.423	74.258019
1097.595	74.724348
1097.768	75.227737
1097.940	75.062143
1098.112	75.057254
1098.284	75.014076
1098.457	75.449371
1098.629	76.225131
1098.801	75.629058
1098.973	74.688853
1099.146	73.981065
1099.318	73.573648
1099.490	72.760635
1099.662	72.031491
1099.834	71.441981
1100.006	70.888278
1100.178	70.552309
1100.350	69.964146
1100.522	69.710378
1100.694	69.190510
1100.866	69.135832
1101.038	69.716942
1101.210	69.429088
1101.382	70.116765
1101.554	70.076969
1101.726	70.912096
1101.898	71.013853
1102.070	71.103091
1102.241	71.420539
1102.413	70.703479
1102.585	71.173109
1102.757	71.871976
1102.929	71.577524
1103.100	71.434561
1103.272	70.527495
1103.444	70.604108
1103.616	70.038773
1103.787	70.215865
1103.959	69.844048
1104.130	69.136868
1104.302	69.156111
1104.474	68.525765
1104.645	67.836332
1104.817	67.366061
1104.988	67.547375
1105.160	67.890474
1105.331	67.658426
1105.503	67.349675
1105.674	66.825898
1105.846	66.750177
1106.017	66.854043
1106.189	66.992211
1106.360	66.867730
1106.531	66.904762
1106.703	66.840453
1106.874	66.515970
1107.045	65.965491
1107.217	65.656389
1107.388	65.765250
1107.559	65.723254
1107.730	65.553147
1107.902	65.994041
1108.073	66.543794
1108.244	67.468712
1108.415	67.613642
1108.586	67.817687
1108.757	67.366825
1108.929	67.686209
1109.100	68.122127
1109.271	68.168226
1109.442	68.036796
1109.613	68.306073
1109.784	67.946209
1109.955	67.460423
1110.126	66.892337
1110.297	66.883024
1110.468	66.993732
1110.639	67.687968
1110.809	67.934418
1110.980	67.848940
1111.151	67.990285
1111.322	68.388794
1111.493	68.375676
1111.664	68.019117
1111.834	67.748365
1112.005	67.728148
1112.176	67.986428
1112.347	67.818516
1112.517	67.147612
1112.688	66.248643
1112.859	65.812668
1113.029	65.381326
1113.200	64.975836
1113.371	64.454910
1113.541	64.085278
1113.712	64.327620
1113.882	64.571296
1114.053	64.228212
1114.223	64.278763
1114.394	64.059755
1114.564	63.893054
1114.735	63.668922
1114.905	63.249433
1115.076	63.051163
1115.246	62.779545
1115.416	62.794608
1115.587	62.499504
1115.757	62.178240
1115.927	61.868780
1116.098	61.148355
1116.268	61.134161
1116.438	61.285937
1116.609	61.404095
1116.779	61.869504
1116.949	61.858173
1117.119	62.040821
1117.289	61.761905
1117.459	61.295120
1117.630	60.667184
1117.800	60.607564
1117.970	60.545998
1118.140	60.767328
1118.310	60.492497
1118.480	59.942023
1118.650	59.574671
1118.820	59.765942
1118.990	59.428355
1119.160	59.319523
1119.330	59.175622
1119.500	59.080764
1119.670	59.277945
1119.840	59.890974
1120.010	59.637869
1120.179	59.870628
1120.349	60.223289
1120.519	59.759498
1120.689	59.601170
1120.859	60.141680
1121.028	60.859781
1121.198	61.490550
1121.368	61.630854
1121.538	60.739824
1121.707	59.781533
1121.877	60.041234
1122.047	60.123878
1122.216	59.662759
1122.386	60.034857
1122.555	59.455571
1122.725	58.902559
1122.894	57.964562
1123.064	57.632291
1123.233	57.167102
1123.403	57.266135
1123.573	57.444221
1123.742	56.962456
1123.911	56.538611
1124.081	56.540146
1124.250	56.807998
1124.419	57.569566
1124.589	57.647462
1124.758	57.932807
1124.927	57.741931
1125.097	58.049625
1125.266	57.810224
1125.435	57.897560
1125.605	57.925198
1125.774	57.870846
1125.943	58.006896
1126.112	57.490688
1126.281	57.000302
1126.450	56.871164
1126.620	57.184584
1126.789	57.048699
1126.958	57.274426
1127.127	57.603666
1127.296	57.619015
1127.465	57.811304
1127.634	57.929791
1127.803	57.961765
1127.972	58.039991
1128.141	57.676940
1128.310	57.599617
1128.479	57.575964
1128.648	57.381682
1128.817	56.731163
1128.985	56.400065
1129.154	55.808119
1129.323	55.223289
1129.492	54.919091
1129.661	54.626438
1129.829	54.498486
1129.998	54.401628
1130.167	54.370124
1130.336	53.862829
1130.504	54.088810
1130.673	54.481415
1130.842	54.446953
1131.010	54.529708
1131.179	54.620900
1131.347	54.305825
1131.516	53.741812
1131.685	53.087842
1131.853	52.891676
1132.022	52.374699
1132.190	52.278997
1132.359	51.739206
1132.527	51.126861
1132.696	51.262945
1132.864	51.349938
1133.032	51.199791
1133.201	51.080370
1133.369	51.170808
1133.537	51.572268
1133.706	52.000939
1133.874	51.964740
1134.042	51.543680
1134.211	51.495955
1134.379	51.637562
1134.547	51.356588
1134.715	51.096086
1134.884	50.868912
1135.052	50.771850
1135.220	50.524458
1135.388	50.323270
1135.556	49.690528
1135.724	49.416860
1135.892	49.374938
1136.060	49.338095
1136.228	48.915379
1136.396	48.594771
1136.564	48.170181
1136.732	47.968819
1136.900	48.076067
1137.068	48.752006
1137.236	48.769163
1137.404	48.640885
1137.572	48.966416
1137.740	48.957901
1137.908	48.610866
1138.076	48.572057
1138.243	48.695237
1138.411	48.878235
1138.579	48.815450
1138.747	48.478415
1138.914	47.432413
1139.082	46.923607
1139.250	47.044394
1139.417	47.044356
1139.585	46.931883
1139.753	47.386757
1139.920	47.565444
1140.088	47.079804
1140.256	47.176849
1140.423	47.776637
1140.591	47.597739
1140.758	48.315841
1140.926	48.311472
1141.093	48.077003
1141.261	47.718551
1141.428	47.512607
1141.596	46.951727
1141.763	46.565657
1141.930	46.401600
1142.098	46.216444
1142.265	45.641936
1142.432	45.746595
1142.600	45.455757
1142.767	45.342434
1142.934	45.360686
1143.102	45.078605
1143.269	44.789411
1143.436	44.714089
1143.603	44.297394
1143.771	44.159436
1143.938	43.875855
1144.105	43.962390
1144.272	44.386612
1144.439	43.401975
1144.606	42.964057
1144.773	42.943674
1144.940	43.073958
1145.107	43.350003
1145.274	43.130980
1145.441	43.344205
1145.608	43.625266
1145.775	43.661189
1145.942	43.155994
1146.109	42.654088
1146.276	42.833262
1146.443	43.075817
1146.610	42.618200
1146.776	42.436220
1146.943	42.331713
1147.110	42.116295
1147.277	41.969369
1147.444	41.964756
1147.610	41.692622
1147.777	41.696600
1147.944	41.234420
1148.110	41.603053
1148.277	41.654187
1148.444	41.439205
1148.610	41.681231
1148.777	41.991987
1148.944	42.465502
1149.110	42.532781
1149.277	42.286397
1149.443	42.545239
1149.610	42.295713
1149.776	42.111400
1149.943	41.953210
1150.109	41.358363
1150.276	41.483978
1150.442	41.010321
1150.608	40.363336
1150.775	39.988521
1150.941	39.661559
1151.107	39.435553
1151.274	39.064136
1151.440	38.920301
1151.606	39.010404
1151.773	38.564619
1151.939	38.622792
1152.105	38.473570
1152.271	38.352550
1152.438	38.032484
1152.604	37.455361
1152.770	37.407960
1152.936	37.575592
1153.102	37.371873
1153.268	37.299772
1153.434	37.334267
1153.600	37.933656
1153.766	38.188376
1153.932	38.450042
1154.098	38.438450
1154.264	38.698670
1154.430	39.487137
1154.596	39.580759
1154.762	39.274913
1154.928	39.082166
1155.094	39.243938
1155.260	39.112340
1155.426	38.530287
1155.591	37.981396
1155.757	37.690518
1155.923	36.965612
1156.089	36.671134
1156.255	35.947506
1156.420	35.512928
1156.586	35.918686
1156.752	35.896088
1156.917	35.471241
1157.083	35.202148
1157.249	35.544107
1157.414	35.560483
1157.580	34.788363
1157.745	34.942293
1157.911	35.044716
1158.076	34.879866
1158.242	34.815389
1158.407	34.245086
1158.573	34.076224
1158.738	33.857769
1158.904	33.463417
1159.069	32.292342
1159.235	31.874975
1159.400	32.128123
1159.565	32.083458
1159.731	32.070963
1159.896	32.343582
1160.061	32.471513
1160.227	32.646143
1160.392	32.681081
1160.557	32.766614
1160.722	32.692741
1160.888	33.231949
1161.053	33.661651
1161.218	33.544194
1161.383	33.550699
1161.548	32.683909
1161.713	32.054266
1161.878	31.935091
1162.043	31.360159
1162.208	30.844745
1162.374	30.474233
1162.539	30.649006
1162.704	30.452286
1162.869	30.191925
1163.033	30.334678
1163.198	30.379113
1163.363	31.280585
1163.528	31.809647
1163.693	31.567039
1163.858	31.790251
1164.023	32.071194
1164.188	32.545561
1164.353	32.499378
1164.517	32.267574
1164.682	32.237744
1164.847	32.221935
1165.011	32.035928
1165.176	31.272292
1165.341	30.792847
1165.506	30.966988
1165.670	30.689500
1165.835	30.476243
1166.000	30.077169
1166.164	29.761049
1166.329	29.794130
1166.493	29.832857
1166.658	29.486396
1166.822	29.518310
1166.987	29.844109
1167.151	30.034920
1167.316	29.872970
1167.480	29.682650
1167.645	30.074406
1167.809	29.942212
1167.973	30.227376
1168.138	30.313721
1168.302	30.487909
1168.466	30.883354
1168.631	30.658877
1168.795	30.385111
1168.959	30.144488
1169.124	30.428037
1169.288	30.615715
1169.452	29.952951
1169.616	30.264248
1169.780	30.174142
1169.944	30.045852
1170.109	29.739958
1170.273	29.258795
1170.437	29.137225
1170.601	29.187761
1170.765	29.071435
1170.929	28.493401
1171.093	28.317253
1171.257	28.392191
1171.421	28.058438
1171.585	28.174016
1171.749	27.882219
1171.913	27.399755
1172.077	27.345015
1172.240	27.263104
1172.404	27.400915
1172.568	27.532094
1172.732	27.765131
1172.896	27.618111
1173.060	27.735819
1173.223	27.834602
1173.387	27.401193
1173.551	27.309058
1173.715	27.537809
1173.878	27.584762
1174.042	27.533503
1174.206	27.551333
1174.369	27.489658
1174.533	27.608665
1174.696	27.466431
1174.860	27.116931
1175.023	26.392111
1175.187	25.962202
1175.351	25.788285
1175.514	25.899000
1175.677	25.796284
1175.841	25.654284
1176.004	24.920040
1176.168	24.601102
1176.331	24.158045
1176.495	24.668705
1176.658	24.769030
1176.821	25.461953
1176.985	25.833681
1177.148	26.109083
1177.311	25.994741
1177.474	25.971351
1177.638	25.839298
1177.801	25.823191
1177.964	26.301340
1178.127	26.058469
1178.291	25.151914
1178.454	25.083273
1178.617	24.832987
1178.780	24.507652
1178.943	24.454112
1179.106	24.057796
1179.269	23.951892
1179.432	24.108903
1179.595	24.498270
1179.758	24.259638
1179.921	24.253481
1180.084	24.238266
1180.247	23.981940
1180.410	23.902142
1180.573	24.164577
1180.736	23.876258
1180.899	23.933033
1181.061	23.900009
1181.224	23.564064
1181.387	23.209652
1181.550	22.617177
1181.713	22.580234
1181.875	22.823088
1182.038	23.055609
1182.201	22.874053
1182.363	22.989071
1182.526	23.283258
1182.689	23.509692
1182.851	23.774110
1183.014	24.377073
1183.177	24.286179
1183.339	24.691208
1183.502	24.799748
1183.664	25.269269
1183.827	25.731531
1183.989	25.958648
1184.152	25.931375
1184.314	25.806553
1184.477	25.225247
1184.639	25.028438
1184.801	25.095379
1184.964	25.310528
1185.126	25.103076
1185.288	25.370193
1185.451	24.739602
1185.613	24.166234
1185.775	24.111753
1185.938	24.121958
1186.100	23.941905
1186.262	24.231504
1186.424	23.886563
1186.586	23.266261
1186.749	23.242629
1186.911	23.286265
1187.073	22.652053
1187.235	22.696057
1187.397	22.481340
1187.559	22.286407
1187.721	21.945600
1187.883	22.138111
1188.045	21.888802
1188.207	22.452670
1188.369	22.574879
1188.531	22.160179
1188.693	21.785763
1188.855	21.718757
1189.017	21.739476
1189.179	22.376335
1189.341	22.283340
1189.502	22.055949
1189.664	22.068344
1189.826	22.581234
1189.988	22.574597
1190.150	22.756960
1190.311	22.979443
1190.473	23.202019
1190.635	23.380859
1190.796	23.561519
1190.958	23.429246
1191.120	23.498706
1191.281	23.468267
1191.443	23.728976
1191.604	24.002642
1191.766	23.535089
1191.928	23.286692
1192.089	23.265259
1192.251	23.304942
1192.412	23.655148
1192.574	23.591700
1192.735	23.606995
1192.896	23.691359
1193.058	24.043158
1193.219	23.507422
1193.381	22.686463
1193.542	22.925158
1193.703	23.069393
1193.865	22.969389
1194.026	22.881478
1194.187	22.638361
1194.349	22.702812
1194.510	23.096374
1194.671	22.985672
1194.832	22.889809
1194.993	23.389532
1195.155	23.452449
1195.316	23.429984
1195.477	23.744592
1195.638	23.894274
1195.799	24.163055
1195.960	23.983873
1196.121	23.614177
1196.282	23.140979
1196.443	23.154136
1196.604	22.903051
1196.765	22.411478
1196.926	22.598833
1197.087	22.859120
1197.248	22.670967
1197.409	22.472433
1197.570	22.200433
1197.730	22.629927
1197.891	23.058189
1198.052	22.911055
1198.213	23.079077
1198.374	22.943158
1198.534	22.674833
1198.695	22.416118
1198.856	21.717183
1199.016	21.799790
1199.177	21.975193
1199.338	22.611799
1199.498	22.862247
1199.659	22.696083
1199.820	22.453866
1199.980	22.168796
1200.141	22.498101
1200.301	22.925742
1200.462	23.423239
1200.622	23.929394
1200.783	24.038925
1200.943	24.054392
1201.104	23.254086
1201.264	22.903902
1201.424	22.851633
1201.585	23.072445
1201.745	23.609658
1201.906	24.375717
1202.066	24.269999
1202.226	24.079878
1202.386	24.182374
1202.547	23.939805
1202.707	24.054004
1202.867	24.742224
1203.027	24.878620
1203.188	24.791182
1203.348	24.667950
1203.508	24.748565
1203.668	24.360791
1203.828	24.659272
1203.988	24.502815
1204.148	24.183833
1204.308	24.393767
1204.468	24.852590
1204.628	24.507786
1204.788	24.465418
1204.948	24.855274
1205.108	25.042712
1205.268	24.892619
1205.428	24.444752
1205.588	24.104050
1205.748	24.565980
1205.908	25.196085
1206.068	25.048257
1206.228	24.097134
1206.387	24.039581
1206.547	24.636223
1206.707	24.544064
1206.867	24.567500
1207.026	24.697222
1207.186	25.228791
1207.346	25.839230
1207.505	25.724387
1207.665	25.370313
1207.825	25.599041
1207.984	26.342506
1208.144	26.746975
1208.303	26.333717
1208.463	26.283776
1208.622	26.768104
1208.782	26.818230
1208.941	27.024308
1209.101	26.472679
1209.260	26.488117
1209.420	26.733333
1209.579	26.176471
1209.739	26.043890
1209.898	26.121935
1210.057	26.216925
1210.217	26.206999
1210.376	25.905939
1210.535	25.610687
1210.694	25.543991
1210.854	25.933704
1211.013	26.174492
1211.172	26.070403
1211.331	26.749210
1211.490	26.877133
1211.650	26.968244
1211.809	26.761262
1211.968	27.359401
1212.127	28.027491
1212.286	28.103175
1212.445	28.196920
1212.604	28.522088
1212.763	28.685186
1212.922	28.976148
1213.081	28.917105
1213.240	28.919633
1213.399	28.681940
1213.558	28.742082
1213.717	28.064000
1213.876	27.597124
1214.035	27.910110
1214.194	27.690026
1214.352	27.390290
1214.511	27.533145
1214.670	26.712299
1214.829	26.549616
1214.988	26.642055
1215.146	26.432617
1215.305	26.960781
1215.464	26.865827
1215.622	26.464421
1215.781	26.557592
1215.940	26.724214
1216.098	26.506286
1216.257	26.183722
1216.415	26.650806
1216.574	26.830727
1216.732	27.253936
1216.891	27.537363
1217.049	27.199350
1217.208	27.704624
1217.366	27.915245
1217.525	28.019520
1217.683	28.104761
1217.842	28.119860
1218.000	27.890823
1218.158	27.752192
1218.317	27.503515
1218.475	27.182708
1218.633	27.803587
1218.792	27.829407
1218.950	28.083025
1219.108	28.350929
1219.266	28.546822
1219.425	28.672156
1219.583	28.997210
1219.741	29.145642
1219.899	29.543929
1220.057	30.074007
1220.215	29.953789
1220.373	29.304160
1220.531	29.283909
1220.689	29.003145
1220.847	28.830278
1221.005	28.634145
1221.163	28.303694
1221.322	28.188363
1221.479	28.391672
1221.637	28.216031
1221.795	28.102459
1221.953	28.719287
1222.111	28.936614
1222.269	28.976486
1222.427	29.109209
1222.584	29.519690
1222.742	29.857752
1222.900	30.251716
1223.058	30.455032
1223.216	30.501124
1223.373	30.801992
1223.531	31.152825
1223.689	30.921825
1223.846	31.094994
1224.004	31.198052
1224.162	30.902483
1224.319	30.691714
1224.477	30.398983
1224.634	30.723481
1224.792	30.504781
1224.949	30.159715
1225.107	29.952051
1225.264	29.953376
1225.422	29.534055
1225.579	29.224282
1225.737	29.327881
1225.894	29.726131
1226.052	29.879665
1226.209	30.354984
1226.366	30.095642
1226.523	30.514749
1226.681	31.316432
1226.838	31.927474
1226.995	31.732592
1227.153	32.417286
1227.310	32.761685
1227.467	32.739272
1227.624	33.089387
1227.781	33.632370
1227.938	33.378155
1228.096	33.146816
1228.253	33.056532
1228.410	33.028230
1228.567	33.102073
1228.724	32.776062
1228.881	32.792806
1229.038	32.706346
1229.195	32.390362
1229.352	31.971161
1229.509	31.411094
1229.666	31.116227
1229.823	31.906920
1229.980	32.603234
1230.136	32.637763
1230.293	32.618210
1230.450	33.003133
1230.607	32.492307
1230.764	32.515712
1230.921	33.014527
1231.077	33.600168
1231.234	33.944925
1231.391	34.812631
1231.547	34.763211
1231.704	34.620233
1231.861	35.080237
1232.018	34.825085
1232.174	34.814237
1232.331	35.142423
1232.487	35.273981
1232.644	35.819031
1232.800	36.128532
1232.957	36.255383
1233.113	35.717932
1233.270	35.357299
1233.426	35.081951
1233.583	34.431989
1233.739	35.178103
1233.896	35.769194
1234.052	35.581034
1234.208	36.124124
1234.365	36.025621
1234.521	35.808755
1234.677	35.220243
1234.834	35.279260
1234.990	35.325019
1235.146	35.668214
1235.302	36.011256
1235.459	35.490575
1235.615	35.508618
1235.771	36.109923
1235.927	36.148219
1236.083	36.354343
1236.239	36.549403
1236.396	37.410521
1236.552	37.681455
1236.708	37.745073
1236.864	37.582764
1237.020	37.928025
1237.176	37.729619
1237.332	37.664131
1237.488	37.826649
1237.644	37.602289
1237.799	37.153170
1237.955	36.871250
1238.111	36.577885
1238.267	36.864775
1238.423	37.342858
1238.579	37.165270
1238.734	37.048059
1238.890	37.706559
1239.046	37.825500
1239.202	37.275699
1239.357	36.925816
1239.513	37.374382
1239.669	37.445854
1239.824	37.525720
1239.980	37.506447
1240.136	37.209739
1240.291	37.210605
1240.447	36.862659
1240.603	37.039395
1240.758	37.437175
1240.914	37.931440
1241.069	38.586128
1241.225	38.584300
1241.380	38.878484
1241.535	38.996643
1241.691	39.148372
1241.846	39.298114
1242.002	40.141771
1242.157	40.548557
1242.313	40.049163
1242.468	39.867851
1242.623	40.356945
1242.778	40.504276
1242.934	40.493164
1243.089	40.177247
1243.244	40.149662
1243.399	39.933095
1243.554	39.869391
1243.710	40.109007
1243.865	40.120368
1244.020	40.398852
1244.175	40.800778
1244.330	40.611749
1244.485	40.230257
1244.640	40.287335
1244.795	40.152992
1244.950	40.924120
1245.105	41.115887
1245.260	41.007220
1245.415	39.914302
1245.570	40.199934
1245.725	40.905850
1245.880	40.403058
1246.035	40.658887
1246.190	40.968085
1246.345	41.280233
1246.499	42.149844
1246.654	41.620971
1246.809	41.567641
1246.964	42.133876
1247.118	43.084213
1247.273	43.019648
1247.428	42.480026
1247.583	42.921558
1247.737	42.585751
1247.892	42.560621
1248.047	42.962849
1248.201	43.502778
1248.356	43.952325
1248.510	43.961115
1248.665	43.807851
1248.819	43.936970
1248.974	44.358017
1249.128	45.427632
1249.283	45.317015
1249.437	45.776297
1249.592	45.837696
1249.746	44.491721
1249.900	43.590815
1250.055	43.355549
1250.209	43.755475
1250.363	44.168519
1250.518	43.951908
1250.672	43.102678
1250.826	42.275014
1250.981	42.416224
1251.135	42.675694
1251.289	43.057697
1251.443	43.821624
1251.597	44.015991
1251.751	44.574058
1251.906	44.394560
1252.060	43.967813
1252.214	44.028188
1252.368	45.088140
1252.522	45.165041
1252.676	45.144208
1252.830	44.717113
1252.984	45.384859
1253.138	45.848429
1253.292	45.829549
1253.446	45.469110
1253.600	46.089109
1253.754	46.781757
1253.907	46.502294
1254.061	46.125692
1254.215	46.637620
1254.369	46.619370
1254.523	47.124607
1254.677	46.608091
1254.830	46.565757
1254.984	47.259086
1255.138	46.919230
1255.292	46.044747
1255.445	45.484232
1255.599	45.910784
1255.752	45.814016
1255.906	45.151037
1256.060	45.641799
1256.213	45.485823
1256.367	45.384524
1256.520	45.316093
1256.674	45.104170
1256.827	45.251446
1256.981	46.375805
1257.134	46.599823
1257.288	46.995659
1257.441	47.039355
1257.594	47.256489
1257.748	46.332099
1257.901	45.901406
1258.055	45.927755
1258.208	45.584565
1258.361	44.972087
1258.515	45.428764
1258.668	44.946035
1258.821	45.486517
1258.974	44.790293
1259.127	44.968830
1259.281	45.579599
1259.434	46.832756
1259.587	48.053126
1259.740	48.810728
1259.893	49.694207
1260.046	50.492030
1260.199	51.750834
1260.352	51.819826
1260.505	51.640272
1260.658	52.595428
1260.811	53.311078
1260.964	53.562476
1261.117	53.404206
1261.270	52.878525
1261.423	52.597012
1261.576	51.883147
1261.729	51.772967
1261.882	50.870319
1262.035	50.733761
1262.188	50.911031
1262.340	50.519067
1262.493	50.249674
1262.646	50.095373
1262.798	49.921365
1262.951	50.194132
1263.104	51.199537
1263.257	51.246580
1263.409	51.706757
1263.562	51.077785
1263.714	51.431240
1263.867	50.861272
1264.020	51.113203
1264.172	51.155440
1264.325	51.072429
1264.477	50.930868
1264.630	50.126702
1264.782	49.102149
1264.935	49.647380
1265.087	49.077890
1265.240	49.572386
1265.392	49.224157
1265.544	49.707517
1265.697	49.473074
1265.849	48.761931
1266.001	48.890424
1266.154	49.509951
1266.306	50.187681
1266.458	50.048011
1266.610	51.141784
1266.762	51.378468
1266.915	51.030438
1267.067	51.359231
1267.219	52.003852
1267.371	52.342364
1267.523	53.609167
1267.675	54.012558
1267.828	53.678262
1267.979	53.486750
1268.132	53.083188
1268.284	52.104072
1268.436	52.717821
1268.588	53.572846
1268.740	54.222524
1268.891	53.677405
1269.043	53.270202
1269.195	52.325956
1269.347	51.964204
1269.499	51.517797
1269.651	51.351710
1269.803	51.821327
1269.955	52.324444
1270.106	52.769784
1270.258	52.764517
1270.410	51.914689
1270.562	51.512644
1270.713	52.612374
1270.865	53.257524
1271.017	53.653111
1271.168	53.667982
1271.320	53.777949
1271.471	53.173988
1271.623	52.275057
1271.775	51.284227
1271.926	50.961303
1272.078	51.722755
1272.229	52.250894
1272.381	51.582991
1272.532	52.048581
1272.684	52.140543
1272.835	52.958895
1272.986	53.672204
1273.138	54.498721
1273.289	54.461543
1273.440	54.331753
1273.592	54.115680
1273.743	54.108330
1273.894	54.435148
1274.046	55.264279
1274.197	54.799650
1274.348	54.035281
1274.500	53.483576
1274.651	52.818311
1274.802	53.229025
>>>>>>>>>> END of Data <<<<<<<<<<
