Date	2025年07月03日木曜日 09時55分21秒
Spectrometers	SR401765
ダーク	使用
リファレンス	使用
積分時間[msec]	300
平均回数	1
ｽﾑｰｼﾞﾝｸﾞ	5
Electrical Dark	USE
ピクセル数	3648
計測モード	反射率
保存開始波長[nm]	598.495
保存終了波長[nm]	1274.802
保存ﾋﾟｯﾁ波長[nm]	全波長

>>>>>>>>>> Data Start <<<<<<<<<<<<
598.495	27485.394979
598.713	27485.394979
598.931	27485.394979
599.148	27485.394979
599.366	0.000000
599.584	0.000000
599.802	5047.600465
600.020	220.903403
600.238	-55.418823
600.455	-110.151960
600.673	-83.917746
600.891	34.348813
601.109	40.847620
601.326	42.068649
601.544	41.986978
601.762	42.609165
601.979	43.086614
602.197	43.520349
602.415	43.963272
602.632	44.282548
602.850	44.428406
603.067	44.721689
603.285	45.102145
603.502	45.322857
603.720	45.519088
603.938	45.988546
604.155	46.264253
604.372	46.436131
604.590	46.685463
604.807	46.922107
605.025	47.060786
605.242	47.264334
605.460	47.182580
605.677	47.106800
605.894	47.134768
606.112	47.262962
606.329	47.303205
606.546	47.511988
606.764	47.992800
606.981	48.247165
607.198	48.293550
607.415	48.407582
607.633	48.735774
607.850	49.037522
608.067	49.363496
608.284	49.728750
608.501	49.999327
608.718	50.251329
608.935	50.327374
609.153	50.140961
609.370	50.117213
609.587	50.286090
609.804	50.616213
610.021	50.655466
610.238	50.664324
610.455	50.574821
610.672	50.458086
610.889	50.482319
611.106	50.468178
611.323	50.605089
611.540	50.943891
611.756	51.194800
611.973	51.250093
612.190	51.209277
612.407	51.235934
612.624	51.487843
612.841	51.907825
613.057	52.264811
613.274	52.580982
613.491	53.218184
613.708	53.876491
613.925	54.264282
614.141	54.493775
614.358	54.840935
614.575	55.195955
614.791	55.475703
615.008	55.753559
615.225	55.871394
615.441	55.764615
615.658	55.611015
615.874	55.315400
616.091	55.075455
616.307	55.194296
616.524	55.519109
616.740	55.729260
616.957	55.832566
617.173	56.123526
617.390	56.172280
617.606	56.264493
617.823	56.681249
618.039	57.113106
618.256	57.474701
618.472	57.777450
618.688	57.802740
618.905	57.796557
619.121	57.843633
619.337	57.972183
619.554	58.079986
619.770	58.247408
619.986	58.447773
620.202	58.678083
620.419	58.983034
620.635	59.084366
620.851	59.031699
621.067	59.065550
621.283	59.199417
621.499	59.430644
621.716	59.583784
621.932	59.682585
622.148	60.003803
622.364	60.264486
622.580	60.393192
622.796	60.429829
623.012	60.533211
623.228	60.822878
623.444	61.198664
623.660	61.394099
623.876	61.442572
624.092	61.613056
624.308	61.978484
624.524	62.242433
624.740	62.454803
624.955	62.660183
625.171	62.862185
625.387	62.919367
625.603	63.032638
625.819	63.177408
626.034	63.373540
626.250	63.585130
626.466	63.751359
626.682	63.715626
626.897	63.556033
627.113	63.542876
627.329	63.714085
627.544	63.999500
627.760	64.239957
627.976	64.218552
628.191	64.158877
628.407	64.357788
628.623	64.789935
628.838	65.127235
629.054	65.409884
629.269	65.808762
629.485	66.130503
629.700	66.480976
629.916	66.888565
630.131	67.235401
630.347	67.637054
630.562	68.196696
630.777	68.367998
630.993	68.315535
631.208	68.219051
631.424	68.127117
631.639	68.067676
631.854	67.986039
632.070	67.789876
632.285	67.560512
632.500	67.552442
632.715	67.518231
632.931	67.262397
633.146	67.094789
633.361	66.936474
633.576	67.038983
633.791	67.291001
634.007	67.495332
634.222	67.759675
634.437	67.887366
634.652	67.794328
634.867	67.811698
635.082	68.070042
635.297	68.376699
635.512	68.680583
635.727	69.042715
635.942	69.364315
636.157	69.680235
636.372	69.787706
636.587	69.633873
636.802	69.551986
637.017	69.776193
637.232	70.024851
637.447	70.279645
637.662	70.495218
637.876	70.614579
638.091	70.578687
638.306	70.476324
638.521	70.351238
638.736	70.320969
638.951	70.409758
639.165	70.430692
639.380	70.460838
639.595	70.503939
639.809	70.364692
640.024	70.164544
640.239	70.243957
640.453	70.390930
640.668	70.630532
640.883	70.768106
641.097	70.862143
641.312	71.086703
641.526	71.327254
641.741	71.321187
641.955	71.246946
642.170	71.242316
642.384	71.420363
642.599	71.482795
642.813	71.660115
643.028	71.946793
643.242	72.326194
643.457	72.729848
643.671	72.838935
643.885	72.819313
644.100	72.919907
644.314	73.140282
644.528	73.299629
644.743	73.375526
644.957	73.439972
645.171	73.398207
645.386	72.980710
645.600	72.604379
645.814	72.497638
646.028	72.669151
646.242	72.784507
646.457	72.597974
646.671	72.283102
646.885	72.281399
647.099	72.489602
647.313	72.664133
647.527	72.739776
647.741	72.919457
647.955	73.207962
648.169	73.481523
648.383	73.750459
648.597	74.041846
648.811	74.486430
649.025	74.982100
649.239	75.084994
649.453	74.945522
649.667	74.912909
649.881	75.211193
650.095	75.465356
650.309	75.395691
650.523	75.377140
650.737	75.335313
650.950	75.439974
651.164	75.673168
651.378	76.014268
651.592	76.454016
651.805	76.705968
652.019	76.907623
652.233	76.979612
652.447	77.052351
652.660	77.125203
652.874	77.011192
653.088	76.970096
653.301	76.937083
653.515	76.773462
653.728	76.443749
653.942	76.179197
654.156	75.838268
654.369	75.406905
654.583	75.088212
654.796	75.064513
655.010	75.213118
655.223	75.376860
655.437	75.357594
655.650	75.288400
655.863	75.245012
656.077	75.450993
656.290	75.489584
656.504	75.720114
656.717	76.016393
656.930	76.147626
657.144	76.112232
657.357	76.304683
657.570	76.459301
657.783	76.510974
657.997	76.605991
658.210	76.747629
658.423	76.704908
658.636	76.861990
658.849	77.103527
659.063	77.379988
659.276	77.783133
659.489	78.184411
659.702	78.344676
659.915	78.316750
660.128	78.301576
660.341	78.595102
660.554	78.942107
660.767	79.172396
660.980	79.416710
661.193	79.481191
661.406	79.717061
661.619	80.046112
661.832	80.166831
662.045	80.097410
662.258	80.161998
662.471	80.353756
662.684	80.303597
662.897	80.176371
663.110	79.859071
663.322	79.466729
663.535	79.182720
663.748	78.667091
663.961	78.126842
664.174	77.760652
664.386	77.716879
664.599	77.976052
664.812	78.202497
665.024	78.451598
665.237	78.645602
665.450	78.942769
665.662	79.243728
665.875	79.668078
666.088	80.148414
666.300	80.310014
666.513	80.402395
666.725	80.510783
666.938	80.401593
667.150	80.189592
667.363	80.100860
667.575	80.172860
667.788	80.443159
668.000	80.858167
668.213	81.061078
668.425	81.151863
668.638	81.184839
668.850	81.126535
669.062	81.099173
669.275	81.290421
669.487	81.681928
669.699	81.903264
669.912	82.041319
670.124	81.911794
670.336	81.431702
670.548	81.153837
670.761	80.912892
670.973	80.920973
671.185	81.144409
671.397	81.162120
671.609	81.111459
671.822	80.957453
672.034	80.776371
672.246	80.640672
672.458	80.669183
672.670	81.017759
672.882	81.254386
673.094	81.233179
673.306	81.179737
673.518	81.114523
673.730	80.915534
673.942	80.625023
674.154	80.389506
674.366	80.327961
674.578	80.423509
674.790	80.654144
675.002	80.727833
675.214	80.732632
675.425	80.715589
675.637	80.509611
675.849	80.297484
676.061	80.232546
676.273	80.231213
676.484	80.279419
676.696	80.414714
676.908	80.678674
677.120	80.911361
677.331	80.863280
677.543	80.721594
677.755	80.728509
677.966	81.069822
678.178	81.383146
678.389	81.578831
678.601	81.821911
678.813	82.062648
679.024	81.956453
679.236	81.669201
679.447	81.288400
679.659	80.876594
679.870	80.471605
680.082	80.213151
680.293	79.701464
680.505	79.353596
680.716	79.303322
680.927	79.002337
681.139	78.643551
681.350	78.509359
681.562	78.337966
681.773	78.148972
681.984	78.266488
682.196	78.614362
682.407	79.026934
682.618	79.494492
682.829	79.667383
683.041	79.768908
683.252	80.146993
683.463	80.547573
683.674	80.798744
683.885	80.857692
684.097	80.737013
684.308	80.650804
684.519	80.565778
684.730	80.370108
684.941	80.028712
685.152	79.821399
685.363	79.652321
685.574	79.373419
685.785	79.130008
685.996	78.950431
686.207	79.020589
686.418	79.297005
686.629	79.507855
686.840	79.682483
687.051	79.863925
687.262	80.132900
687.473	80.351959
687.684	80.464655
687.894	80.655421
688.105	81.028898
688.316	81.354942
688.527	81.429058
688.738	81.276319
688.948	80.947848
689.159	80.550331
689.370	80.096960
689.580	79.822869
689.791	79.733304
690.002	79.742107
690.212	79.806571
690.423	79.737696
690.634	79.693686
690.844	79.654744
691.055	79.939983
691.266	80.436848
691.476	80.770005
691.687	81.252758
691.897	81.820496
692.108	82.185483
692.318	82.357300
692.529	82.131014
692.739	81.753371
692.949	81.524322
693.160	81.531783
693.370	81.631170
693.581	81.875129
693.791	82.251549
694.001	82.302302
694.212	82.216992
694.422	82.220311
694.632	82.083598
694.843	82.170792
695.053	82.607006
695.263	82.903094
695.473	82.931125
695.683	82.806231
695.894	82.568451
696.104	82.399038
696.314	82.377536
696.524	82.392689
696.734	82.549832
696.944	82.882423
697.154	83.063686
697.365	82.892125
697.575	82.582269
697.785	82.518082
697.995	82.358372
698.205	82.024026
698.415	81.671385
698.625	81.362454
698.834	80.983377
699.044	80.376000
699.254	79.871425
699.464	79.528379
699.674	79.197558
699.884	78.845083
700.094	78.427554
700.304	77.976206
700.513	77.626314
700.723	77.547744
700.933	77.732589
701.143	78.047685
701.353	78.341032
701.562	78.485032
701.772	78.580699
701.982	78.874646
702.191	79.349078
702.401	79.722637
702.611	80.122270
702.820	80.454119
703.030	80.585109
703.239	80.490377
703.449	80.220451
703.659	80.118522
703.868	80.089090
704.078	79.882401
704.287	79.500274
704.497	79.084666
704.706	78.654754
704.916	78.252521
705.125	78.033836
705.334	77.818547
705.544	77.719136
705.753	77.746104
705.962	77.693854
706.172	77.513993
706.381	77.686039
706.590	77.943829
706.800	78.004383
707.009	78.169886
707.218	78.641323
707.428	78.992905
707.637	79.126081
707.846	79.287212
708.055	79.678515
708.264	80.053367
708.474	80.419244
708.683	80.535371
708.892	80.518677
709.101	80.769176
709.310	81.023615
709.519	81.000127
709.728	80.931367
709.937	80.897224
710.146	80.714034
710.355	80.303798
710.564	79.840224
710.773	79.377082
710.982	78.869645
711.191	78.338132
711.400	77.948863
711.609	77.747085
711.818	77.611549
712.027	77.555334
712.235	77.721011
712.444	77.795329
712.653	77.655024
712.862	77.634967
713.071	77.881518
713.279	78.310934
713.488	78.768454
713.697	78.892781
713.906	78.804181
714.114	78.698815
714.323	78.568885
714.532	78.236423
714.740	78.118359
714.949	78.328884
715.157	78.537641
715.366	78.490237
715.575	78.291771
715.783	78.093976
715.992	77.863990
716.200	77.546652
716.409	77.121405
716.617	76.699140
716.826	76.497893
717.034	76.399239
717.242	76.365328
717.451	76.205314
717.659	76.096557
717.868	76.115646
718.076	76.429796
718.284	77.039887
718.493	77.712816
718.701	78.211605
718.909	78.557946
719.118	78.755020
719.326	78.826339
719.534	78.780992
719.742	78.739006
719.951	78.896327
720.159	79.002538
720.367	78.797714
720.575	78.383387
720.783	78.010294
720.991	77.860387
721.199	77.683515
721.408	77.289433
721.616	76.800559
721.824	76.403497
722.032	76.195679
722.240	75.702744
722.448	75.285999
722.656	75.198572
722.864	75.157588
723.072	74.972403
723.280	74.675632
723.487	74.532271
723.695	74.655253
723.903	75.048483
724.111	75.171542
724.319	75.179481
724.527	75.470334
724.735	75.960941
724.942	76.202916
725.150	76.159187
725.358	76.074621
725.566	76.172521
725.773	76.394019
725.981	76.510126
726.189	76.345857
726.396	76.155909
726.604	75.974526
726.812	75.818308
727.019	75.468472
727.227	75.075697
727.435	75.167681
727.642	75.397243
727.850	75.331946
728.057	75.012264
728.265	74.539363
728.472	74.000592
728.680	73.655545
728.887	73.440338
729.095	73.156199
729.302	72.853565
729.509	72.557742
729.717	72.193906
729.924	72.034800
730.132	72.169277
730.339	72.261340
730.546	72.483984
730.753	72.774824
730.961	73.064762
731.168	73.289198
731.375	73.326435
731.583	73.069781
731.790	72.763509
731.997	72.493637
732.204	72.123377
732.411	71.727846
732.618	71.490126
732.826	71.348171
733.033	71.311645
733.240	71.185331
733.447	70.892531
733.654	70.731042
733.861	70.869912
734.068	71.209123
734.275	71.642395
734.482	71.977975
734.689	71.982088
734.896	71.886693
735.103	71.882026
735.310	71.856571
735.517	71.857551
735.724	71.829103
735.931	71.445781
736.137	71.078923
736.344	70.794253
736.551	70.273359
736.758	69.794347
736.965	69.548257
737.171	69.229614
737.378	68.888693
737.585	68.623904
737.792	68.311796
737.998	68.156210
738.205	68.511482
738.412	68.715879
738.618	68.606957
738.825	68.473074
739.032	68.428983
739.238	68.415626
739.445	68.573017
739.651	68.418221
739.858	68.078580
740.064	67.833739
740.271	67.785776
740.477	67.487419
740.684	67.190338
740.890	66.889287
741.097	66.527920
741.303	66.082678
741.510	65.692138
741.716	65.330823
741.922	65.267881
742.129	65.482142
742.335	65.701487
742.541	65.527102
742.748	65.342480
742.954	65.306479
743.160	65.380691
743.366	65.365249
743.573	65.144218
743.779	64.895212
743.985	64.784740
744.191	64.634259
744.397	64.343122
744.604	63.971656
744.810	63.731475
745.016	63.534041
745.222	63.211549
745.428	62.659482
745.634	62.242749
745.840	62.045435
746.046	61.873978
746.252	61.654524
746.458	61.505284
746.664	61.405098
746.870	61.324008
747.076	61.175396
747.282	60.905204
747.488	60.715491
747.694	60.765290
747.900	60.867659
748.105	60.992140
748.311	60.994208
748.517	60.842824
748.723	60.522700
748.929	60.008796
749.134	59.512923
749.340	59.233938
749.546	59.261062
749.752	59.270212
749.957	59.178954
750.163	58.954692
750.369	58.574967
750.574	58.308449
750.780	58.196578
750.985	58.056195
751.191	57.888982
751.397	57.832324
751.602	57.642592
751.808	57.246263
752.013	56.706117
752.219	56.204374
752.424	55.919018
752.630	55.837487
752.835	55.560618
753.041	55.206587
753.246	54.917232
753.451	54.598794
753.657	54.165572
753.862	53.757205
754.067	53.172902
754.273	52.668346
754.478	52.202155
754.683	51.756559
754.889	51.343786
755.094	51.291030
755.299	51.065182
755.504	50.847599
755.710	50.844055
755.915	50.670454
756.120	50.222935
756.325	49.956912
756.530	49.718640
756.735	49.512215
756.940	49.300454
757.146	48.975293
757.351	48.397950
757.556	47.832750
757.761	47.060338
757.966	46.250539
758.171	45.696096
758.376	45.577453
758.581	45.438848
758.786	45.292791
758.990	45.150301
759.195	44.945201
759.400	44.618432
759.605	44.289479
759.810	44.240553
760.015	44.401900
760.220	44.411127
760.424	44.333576
760.629	43.927650
760.834	43.678244
761.039	43.529929
761.244	43.394491
761.448	43.104370
761.653	42.854229
761.858	42.756857
762.062	42.556796
762.267	42.307724
762.472	42.087037
762.676	41.676386
762.881	41.312747
763.085	40.810411
763.290	40.285994
763.494	39.580464
763.699	38.923237
763.903	38.409168
764.108	37.979157
764.312	37.554788
764.517	37.195671
764.721	36.897605
764.926	36.667924
765.130	36.447056
765.335	36.108916
765.539	35.848828
765.743	35.828933
765.948	35.729075
766.152	35.546525
766.356	35.169734
766.560	34.726549
766.765	34.247510
766.969	33.718362
767.173	33.373090
767.377	33.125639
767.582	33.043600
767.786	32.885363
767.990	32.667018
768.194	32.574247
768.398	32.366536
768.602	32.031489
768.806	31.675044
769.010	31.325082
769.215	31.042876
769.419	30.580039
769.623	30.214859
769.827	29.801931
770.031	29.303245
770.234	28.664286
770.438	28.039198
770.642	27.601059
770.846	27.401585
771.050	27.273198
771.254	27.143997
771.458	26.909527
771.662	26.722472
771.866	26.379269
772.069	25.998829
772.273	25.634595
772.477	25.304341
772.681	24.949503
772.885	24.611793
773.088	24.100428
773.292	23.568964
773.496	23.197659
773.699	22.909703
773.903	22.644091
774.107	22.439790
774.310	22.198560
774.514	21.938635
774.717	21.767854
774.921	21.571874
775.124	21.186109
775.328	20.868685
775.531	20.626414
775.735	20.206284
775.938	19.857151
776.142	19.518669
776.345	19.027936
776.549	18.616238
776.752	18.311661
776.956	18.022558
777.159	17.652173
777.362	17.295076
777.566	17.099348
777.769	16.909623
777.972	16.696564
778.176	16.407575
778.379	16.251239
778.582	16.213194
778.785	16.177969
778.989	16.077684
779.192	15.877660
779.395	15.792750
779.598	15.843809
779.801	15.690120
780.004	15.402450
780.207	15.191929
780.411	15.143734
780.614	14.919550
780.817	14.730220
781.020	14.486864
781.223	14.279536
781.426	14.146477
781.629	14.001414
781.832	13.749211
782.035	13.556552
782.238	13.454230
782.440	13.394857
782.643	13.204970
782.846	13.015939
783.049	12.881607
783.252	12.820619
783.455	12.744003
783.658	12.660380
783.860	12.571022
784.063	12.590759
784.266	12.544960
784.469	12.482331
784.671	12.373071
784.874	12.329041
785.077	12.289189
785.279	12.209138
785.482	12.185098
785.685	12.220020
785.887	12.161016
786.090	12.173408
786.293	12.284655
786.495	12.421413
786.698	12.640075
786.900	12.753192
787.103	12.729724
787.305	12.773357
787.508	12.814198
787.710	12.814809
787.913	12.770035
788.115	12.734336
788.317	12.738426
788.520	12.585748
788.722	12.439551
788.924	12.288519
789.127	12.332451
789.329	12.419196
789.531	12.414718
789.734	12.400515
789.936	12.528832
790.138	12.640629
790.340	12.967026
790.543	13.118097
790.745	13.269324
790.947	13.453284
791.149	13.555917
791.351	13.731325
791.553	13.995416
791.756	14.281875
791.958	14.624361
792.160	14.740624
792.362	14.838119
792.564	14.915429
792.766	15.141143
792.968	15.489624
793.170	15.860152
793.372	16.158143
793.574	16.250669
793.776	16.286805
793.978	16.375561
794.180	16.464867
794.381	16.548649
794.583	16.766300
794.785	17.005060
794.987	17.164281
795.189	17.173412
795.391	17.283036
795.592	17.472108
795.794	17.779741
795.996	18.150347
796.198	18.480287
796.399	18.773239
796.601	19.216480
796.803	19.518903
797.004	19.566381
797.206	19.730272
797.407	20.114298
797.609	20.291183
797.811	20.602100
798.012	20.844735
798.214	20.870488
798.415	21.000791
798.617	21.085515
798.818	21.146852
799.020	21.331688
799.221	21.628090
799.423	21.903189
799.624	22.069652
799.826	22.482567
800.027	22.803887
800.228	23.092781
800.430	23.407742
800.631	23.587467
800.832	23.812895
801.034	24.057480
801.235	24.233104
801.436	24.439163
801.637	24.644208
801.839	24.738483
802.040	24.845019
802.241	24.893601
802.442	24.855084
802.643	25.066503
802.844	25.440529
803.046	25.780299
803.247	26.065997
803.448	26.294032
803.649	26.519078
803.850	26.794019
804.051	27.021725
804.252	27.184618
804.453	27.359134
804.654	27.753031
804.855	28.086981
805.056	28.415777
805.257	28.727427
805.458	29.070851
805.659	29.519676
805.859	30.027712
806.060	30.387806
806.261	31.055313
806.462	31.699537
806.663	32.109127
806.864	32.452208
807.064	32.752717
807.265	33.010986
807.466	33.359972
807.667	33.688096
807.867	33.846358
808.068	34.005241
808.269	34.247418
808.469	34.474903
808.670	34.682908
808.870	35.058586
809.071	35.222350
809.272	35.468600
809.472	35.816479
809.673	36.101440
809.873	36.398482
810.074	36.890172
810.274	37.341997
810.475	37.704004
810.675	37.808345
810.876	37.885715
811.076	38.017974
811.276	38.260488
811.477	38.310994
811.677	38.149140
811.878	38.055380
812.078	38.107078
812.278	38.298674
812.479	38.510653
812.679	38.675207
812.879	38.934198
813.079	39.217232
813.280	39.388961
813.480	39.583509
813.680	39.883042
813.880	40.319411
814.080	40.652825
814.280	40.849425
814.480	40.826666
814.681	40.834894
814.881	40.975020
815.081	41.135314
815.281	41.143071
815.481	41.315828
815.681	41.606993
815.881	41.799719
816.081	42.063090
816.281	42.406514
816.481	42.878651
816.681	43.339473
816.880	43.590152
817.080	43.825394
817.280	44.046152
817.480	44.472569
817.680	44.850151
817.880	45.264924
818.080	45.584640
818.279	45.686960
818.479	45.822760
818.679	45.910937
818.879	46.093558
819.078	46.273382
819.278	46.460775
819.478	46.683285
819.677	47.022349
819.877	47.458801
820.077	47.511430
820.276	47.816542
820.476	48.278613
820.675	48.822195
820.875	49.180785
821.074	49.335560
821.274	49.660323
821.473	50.066493
821.673	50.430714
821.872	50.443893
822.072	50.394723
822.271	50.684625
822.471	50.858975
822.670	50.822260
822.869	50.628713
823.069	50.469177
823.268	50.343952
823.467	50.330343
823.667	50.314728
823.866	50.326047
824.065	50.730237
824.265	51.204713
824.464	51.652985
824.663	52.071945
824.862	52.491062
825.061	52.778815
825.261	53.067572
825.460	53.446417
825.659	53.744397
825.858	53.936930
826.057	54.154549
826.256	54.324121
826.455	54.431509
826.654	54.465291
826.853	54.439938
827.052	54.545271
827.251	54.944439
827.450	55.540123
827.649	56.235680
827.848	56.643336
828.047	56.906908
828.246	57.001578
828.445	57.119403
828.644	57.249029
828.843	57.195497
829.041	57.451065
829.240	57.794509
829.439	57.858965
829.638	57.840505
829.836	57.628149
830.035	57.606718
830.234	57.759227
830.433	57.831102
830.631	57.645979
830.830	57.251314
831.029	57.035571
831.227	56.916784
831.426	56.732442
831.624	56.482852
831.823	56.079310
832.022	55.775488
832.220	55.636089
832.419	55.536756
832.617	55.799208
832.816	56.020630
833.014	56.322747
833.213	56.670615
833.411	56.646797
833.609	56.664556
833.808	56.965909
834.006	57.323729
834.205	57.804934
834.403	58.193300
834.601	58.539499
834.800	58.465906
834.998	58.462231
835.196	58.512149
835.394	58.690158
835.593	59.323032
835.791	59.830587
835.989	60.251906
836.187	60.804829
836.385	60.999482
836.584	61.121139
836.782	61.266157
836.980	61.568926
837.178	62.036228
837.376	62.511140
837.574	62.756273
837.772	62.850476
837.970	63.030819
838.168	63.130021
838.366	63.075949
838.564	63.129788
838.762	63.047053
838.960	62.760462
839.158	62.619715
839.356	62.432508
839.554	62.305237
839.752	62.246062
839.949	61.995438
840.147	61.842067
840.345	61.881340
840.543	62.068434
840.741	62.385167
840.938	62.661626
841.136	63.193435
841.334	63.804297
841.532	64.314883
841.729	64.727334
841.927	65.214472
842.125	65.547069
842.322	65.771021
842.520	65.720523
842.718	65.526638
842.915	65.174836
843.113	64.934519
843.310	64.608605
843.508	64.358873
843.705	64.287743
843.903	64.341487
844.100	64.483888
844.298	64.709712
844.495	64.762135
844.693	64.892968
844.890	64.956020
845.087	65.264563
845.285	65.562309
845.482	65.603989
845.679	65.583497
845.877	65.637761
846.074	65.637075
846.271	65.669752
846.469	65.780932
846.666	65.697811
846.863	65.619832
847.060	65.604856
847.257	65.461630
847.455	65.515693
847.652	66.005812
847.849	66.396514
848.046	66.493169
848.243	66.814682
848.440	66.875948
848.637	66.884870
848.834	67.106964
849.031	67.122362
849.228	67.223170
849.425	67.465082
849.622	67.782184
849.819	68.011387
850.016	68.086000
850.213	68.095596
850.410	67.799888
850.607	67.503641
850.804	67.404943
851.001	67.559471
851.198	67.758366
851.394	68.104472
851.591	68.514229
851.788	68.778878
851.985	68.824694
852.181	68.995190
852.378	69.453123
852.575	69.880709
852.772	70.300845
852.968	70.177213
853.165	70.209212
853.362	70.747456
853.558	71.009501
853.755	71.088545
853.951	71.122804
854.148	71.106254
854.345	71.217830
854.541	71.372937
854.738	71.533660
854.934	71.735480
855.131	72.266646
855.327	72.481936
855.523	72.403477
855.720	72.527296
855.916	72.509421
856.113	72.478193
856.309	72.655484
856.505	72.729186
856.702	72.489917
856.898	72.128891
857.094	71.852699
857.291	71.862449
857.487	71.804779
857.683	71.658096
857.879	71.303873
858.076	71.182205
858.272	71.136414
858.468	71.264505
858.664	71.542459
858.860	71.528946
859.056	71.564842
859.253	71.725415
859.449	71.302699
859.645	70.996566
859.841	71.102806
860.037	71.554556
860.233	72.166562
860.429	72.657291
860.625	72.678874
860.821	72.239372
861.017	72.074536
861.213	72.108744
861.409	72.315912
861.604	72.900816
861.800	73.523752
861.996	73.543422
862.192	73.101775
862.388	72.475385
862.584	72.054082
862.779	71.973844
862.975	72.315341
863.171	72.540170
863.367	72.424259
863.562	72.097756
863.758	71.701818
863.954	71.172449
864.149	70.924095
864.345	70.929813
864.541	70.704571
864.736	70.277134
864.932	69.737761
865.127	69.175257
865.323	68.576890
865.518	68.309651
865.714	68.258980
865.910	68.351614
866.105	68.485856
866.300	68.797588
866.496	68.836784
866.691	68.897481
866.887	69.079623
867.082	69.037727
867.277	68.957417
867.473	69.308615
867.668	69.887435
867.864	70.058827
868.059	69.911895
868.254	69.900804
868.449	69.698699
868.645	69.687919
868.840	69.669264
869.035	69.952220
869.230	70.633342
869.425	71.090853
869.621	71.539453
869.816	71.617734
870.011	71.827308
870.206	72.417716
870.401	72.851850
870.596	73.447903
870.791	73.722774
870.986	73.943286
871.181	73.830884
871.376	73.517462
871.571	73.404621
871.766	72.860841
871.961	72.362942
872.156	71.997795
872.351	71.576767
872.546	71.278491
872.741	70.869544
872.936	70.830215
873.130	71.060066
873.325	71.213291
873.520	71.567318
873.715	72.168302
873.910	73.139213
874.104	73.850239
874.299	74.182855
874.494	74.187575
874.688	74.155288
874.883	74.175815
875.078	74.315726
875.272	74.048067
875.467	73.381630
875.662	72.563323
875.856	71.774197
876.051	71.025952
876.245	70.529401
876.440	70.330432
876.634	70.495007
876.829	70.394644
877.023	70.305944
877.218	70.263732
877.412	70.640934
877.607	71.214185
877.801	71.804397
877.995	72.216674
878.190	72.496327
878.384	72.821701
878.578	72.989230
878.773	72.955030
878.967	73.395915
879.161	73.912817
879.356	73.936204
879.550	74.308351
879.744	75.193013
879.938	76.095313
880.133	76.693790
880.327	76.856819
880.521	76.923707
880.715	77.251556
880.909	77.610540
881.103	77.746221
881.297	77.451191
881.491	77.348550
881.685	76.576506
881.880	75.700781
882.073	75.136382
882.267	74.909291
882.461	75.080928
882.655	75.513770
882.849	75.695781
883.043	75.864096
883.237	75.684423
883.431	75.646554
883.625	76.017953
883.819	76.890972
884.013	77.753008
884.206	78.193771
884.400	78.565774
884.594	78.934172
884.788	79.378253
884.982	79.615366
885.175	79.851173
885.369	79.921316
885.563	79.915812
885.756	79.723608
885.950	79.550965
886.144	79.339643
886.337	79.240350
886.531	79.101459
886.724	78.969862
886.918	78.311636
887.112	77.662127
887.305	77.145366
887.499	76.889374
887.692	77.084659
887.885	77.498851
888.079	77.565544
888.272	77.506642
888.466	77.418451
888.659	77.491929
888.853	77.952847
889.046	78.799583
889.239	79.536848
889.433	79.969461
889.626	80.967952
889.819	81.311383
890.013	80.936603
890.206	80.893033
890.399	80.964937
890.592	81.180939
890.785	81.186214
890.979	80.778216
891.172	80.164907
891.365	79.643806
891.558	78.985045
891.751	78.050371
891.944	77.718698
892.137	77.928748
892.330	78.050434
892.524	78.145792
892.717	77.827436
892.910	77.392621
893.103	77.206898
893.296	77.000455
893.488	77.162263
893.681	78.016256
893.874	78.432466
894.067	78.738336
894.260	79.065472
894.453	78.870763
894.646	79.037938
894.839	79.515348
895.031	80.369658
895.224	80.916278
895.417	81.880554
895.610	82.726845
895.802	82.993702
895.995	83.359570
896.188	83.520667
896.381	83.610954
896.573	83.973954
896.766	83.788897
896.958	83.311396
897.151	82.755432
897.344	82.375198
897.536	81.874806
897.729	81.562771
897.921	80.932605
898.114	80.466998
898.306	80.084075
898.499	79.427956
898.691	78.652504
898.884	78.086040
899.076	78.073678
899.269	77.573268
899.461	76.896774
899.653	76.478883
899.846	75.862477
900.038	75.475943
900.230	75.452586
900.423	75.471572
900.615	75.623594
900.807	76.335739
901.000	76.963273
901.192	77.085220
901.384	77.213689
901.576	77.777986
901.768	78.075261
901.961	78.187531
902.153	78.645776
902.345	78.770050
902.537	79.018964
902.729	79.478491
902.921	79.608701
903.113	79.466069
903.305	79.455739
903.497	79.872933
903.689	79.700048
903.881	79.231729
904.073	79.026825
904.265	78.610299
904.457	78.427286
904.649	78.280988
904.841	78.177858
905.033	78.361618
905.224	78.652473
905.416	78.906916
905.608	79.164729
905.800	79.450938
905.992	79.703633
906.183	80.442910
906.375	81.280657
906.567	82.005860
906.759	82.169161
906.950	81.824281
907.142	81.192743
907.334	80.837064
907.525	80.739487
907.717	80.888975
907.909	81.126420
908.100	81.259690
908.292	81.054246
908.483	80.763017
908.675	80.724487
908.866	80.794727
909.058	81.457269
909.249	81.957319
909.441	81.953641
909.632	81.474410
909.824	80.744697
910.015	80.672630
910.206	80.914404
910.398	80.685864
910.589	80.495247
910.780	80.157221
910.972	80.018391
911.163	79.504646
911.354	79.071769
911.546	79.130448
911.737	79.651612
911.928	79.938292
912.119	79.492685
912.310	79.391294
912.502	79.254467
912.693	79.027515
912.884	78.879907
913.075	78.675649
913.266	78.639839
913.457	78.952106
913.648	79.507285
913.839	79.952339
914.030	80.697106
914.221	81.344159
914.412	81.734771
914.603	82.666950
914.794	83.737000
914.985	84.356558
915.176	85.233049
915.367	85.768916
915.558	85.806701
915.749	85.370760
915.940	84.828237
916.130	84.494111
916.321	84.581593
916.512	84.107065
916.703	83.521598
916.893	82.904588
917.084	82.200511
917.275	80.960884
917.466	79.918643
917.656	79.370476
917.847	78.715290
918.038	77.731683
918.228	76.430955
918.419	75.593906
918.609	75.489117
918.800	75.642886
918.990	75.878382
919.181	76.389838
919.372	77.252805
919.562	77.974394
919.753	78.437524
919.943	79.254997
920.133	80.245926
920.324	81.290891
920.514	81.480682
920.705	81.212078
920.895	80.737170
921.085	80.222896
921.276	79.837862
921.466	80.011246
921.656	80.339150
921.847	80.081750
922.037	79.809561
922.227	80.163499
922.417	80.338141
922.608	80.749774
922.798	81.259774
922.988	81.406992
923.178	81.275839
923.368	81.203994
923.558	80.855967
923.748	80.662751
923.939	81.011915
924.129	81.089900
924.319	80.478302
924.509	80.177168
924.699	79.911634
924.889	79.233500
925.079	78.853354
925.269	78.898766
925.459	78.900319
925.648	78.453066
925.838	77.881001
926.028	77.711409
926.218	77.753520
926.408	78.143162
926.598	78.328518
926.788	78.653135
926.977	79.017343
927.167	79.026276
927.357	79.198343
927.547	79.604041
927.736	80.119871
927.926	80.456829
928.116	80.173658
928.305	80.244638
928.495	80.284619
928.685	80.243730
928.874	79.928192
929.064	80.339580
929.253	80.915486
929.443	80.953881
929.633	81.055679
929.822	81.192643
930.012	81.697599
930.201	82.153947
930.391	82.067547
930.580	81.792434
930.769	81.831784
930.959	82.199939
931.148	82.377822
931.338	82.461678
931.527	82.699663
931.716	82.485054
931.906	82.024977
932.095	81.520231
932.284	81.670820
932.474	81.571412
932.663	81.303433
932.852	80.776733
933.041	80.686579
933.230	80.420848
933.420	80.325547
933.609	80.662140
933.798	80.591617
933.987	80.682358
934.176	81.192366
934.365	81.326312
934.554	81.904599
934.743	82.905619
934.932	83.662710
935.121	83.114811
935.310	82.814170
935.499	82.480182
935.688	81.568283
935.877	81.287111
936.066	81.395979
936.255	81.032478
936.444	80.981375
936.633	80.420300
936.822	79.738425
937.010	79.591912
937.199	79.977498
937.388	80.506593
937.577	80.896236
937.766	81.894894
937.954	82.843772
938.143	83.484024
938.332	84.260760
938.520	84.724549
938.709	85.536217
938.898	85.926073
939.086	86.055413
939.275	86.307985
939.464	86.300097
939.652	86.602192
939.841	86.205771
940.029	86.197926
940.218	86.241503
940.406	85.735641
940.595	85.214619
940.783	84.355110
940.972	84.168505
941.160	84.141982
941.349	84.630662
941.537	85.195165
941.725	85.361913
941.914	86.183252
942.102	86.813094
942.290	87.241049
942.479	88.045919
942.667	88.806230
942.855	89.445615
943.043	89.786644
943.232	90.025249
943.420	89.821899
943.608	89.292101
943.796	89.371647
943.984	89.117282
944.172	88.479436
944.361	88.024527
944.549	87.404579
944.737	86.637931
944.925	86.601236
945.113	87.157585
945.301	87.221418
945.489	86.917391
945.677	86.722351
945.865	86.198696
946.053	85.897903
946.241	85.499039
946.429	84.771425
946.617	84.173197
946.805	83.659307
946.992	83.440771
947.180	82.904917
947.368	82.705153
947.556	82.906860
947.744	83.771002
947.931	84.361821
948.119	84.064926
948.307	84.180033
948.495	85.100951
948.682	85.679399
948.870	86.042047
949.058	86.172412
949.245	85.932735
949.433	85.270072
949.621	85.021558
949.808	84.665294
949.996	84.528742
950.183	84.485311
950.371	84.444685
950.558	83.989121
950.746	83.166988
950.933	82.850685
951.121	82.400244
951.308	81.776403
951.496	81.715021
951.683	81.224899
951.870	80.219864
952.058	79.466368
952.245	79.317589
952.433	79.413187
952.620	79.327802
952.807	79.409414
952.994	79.427914
953.182	79.818032
953.369	80.603945
953.556	81.513537
953.743	82.064743
953.931	82.717285
954.118	82.955396
954.305	83.205134
954.492	82.819030
954.679	82.456494
954.866	82.566248
955.053	82.672814
955.240	82.501271
955.427	82.448593
955.615	82.349871
955.802	82.015653
955.989	81.647946
956.175	82.144608
956.362	82.796885
956.549	83.350630
956.736	84.150814
956.923	85.089582
957.110	85.690729
957.297	85.840289
957.484	85.949692
957.671	85.760216
957.857	86.538884
958.044	86.949217
958.231	86.274384
958.418	85.808639
958.604	85.531367
958.791	85.234248
958.978	84.914536
959.165	84.752117
959.351	84.638966
959.538	84.461408
959.724	84.139729
959.911	83.321741
960.098	82.825174
960.284	83.255021
960.471	82.930096
960.657	82.724931
960.844	82.854690
961.030	82.622729
961.217	82.142299
961.403	82.167820
961.590	82.230979
961.776	83.070006
961.963	83.880269
962.149	84.532238
962.335	84.668887
962.522	84.772523
962.708	84.123506
962.894	83.376539
963.081	83.438921
963.267	84.165378
963.453	84.694827
963.639	84.885719
963.826	84.152911
964.012	83.841206
964.198	83.460964
964.384	82.688915
964.570	82.469057
964.756	83.432090
964.943	84.263521
965.129	84.174974
965.315	83.297533
965.501	82.301519
965.687	81.734295
965.873	81.615783
966.059	81.376688
966.245	81.734849
966.431	82.659731
966.617	83.159937
966.803	83.599794
966.989	83.414374
967.174	83.685486
967.360	84.509232
967.546	85.160637
967.732	85.023464
967.918	85.195343
968.104	85.672935
968.289	85.429252
968.475	84.733771
968.661	84.736350
968.847	84.110699
969.032	83.895269
969.218	83.804495
969.404	83.619013
969.589	83.725422
969.775	84.422598
969.961	84.128106
970.146	83.616945
970.332	83.564084
970.517	83.608542
970.703	82.751430
970.888	82.849293
971.074	83.512741
971.260	83.987572
971.445	84.359302
971.630	84.484919
971.816	83.961016
972.001	84.597176
972.187	85.518671
972.372	86.080885
972.557	87.231307
972.743	87.943350
972.928	87.691133
973.113	86.846110
973.299	86.445940
973.484	86.480703
973.669	86.286791
973.854	87.000816
974.040	87.333682
974.225	87.127549
974.410	86.605682
974.595	85.481730
974.780	85.272155
974.965	85.418235
975.151	85.899126
975.336	86.154972
975.521	86.659707
975.706	87.107890
975.891	86.704859
976.076	86.776609
976.261	86.469991
976.446	86.469749
976.631	86.455432
976.816	86.803570
977.001	87.288289
977.186	86.885199
977.370	86.267116
977.555	85.140129
977.740	84.641994
977.925	85.219977
978.110	85.016426
978.295	84.876625
978.479	85.533566
978.664	86.877261
978.849	87.050192
979.034	86.250067
979.218	86.701668
979.403	87.472227
979.588	87.656930
979.772	88.020527
979.957	87.807925
980.141	87.761498
980.326	87.543577
980.511	87.100989
980.695	86.401807
980.880	85.959852
981.064	86.520279
981.249	86.569092
981.433	85.957457
981.618	86.326867
981.802	86.343030
981.987	86.631729
982.171	86.500399
982.355	87.123037
982.540	87.922142
982.724	88.384822
982.908	89.499209
983.093	90.207499
983.277	89.533906
983.461	89.375199
983.646	89.618288
983.830	90.292391
984.014	90.276969
984.198	90.093532
984.382	89.680181
984.567	89.194538
984.751	89.172426
984.935	89.236741
985.119	89.364622
985.303	90.143293
985.487	91.112130
985.671	91.112507
985.855	90.301096
986.039	89.533110
986.223	90.112224
986.407	90.974819
986.591	91.120988
986.775	90.466539
986.959	89.842074
987.143	89.126802
987.327	88.227541
987.511	86.607493
987.695	85.847116
987.879	85.264913
988.062	85.370478
988.246	85.120184
988.430	84.580525
988.614	85.295375
988.797	86.095743
988.981	86.670361
989.165	87.118769
989.349	88.553291
989.532	90.577067
989.716	91.463994
989.900	92.753602
990.083	93.198675
990.267	93.132411
990.450	93.500707
990.634	92.403136
990.817	91.120479
991.001	90.218612
991.184	90.324101
991.368	89.813075
991.551	89.912193
991.735	89.908968
991.918	89.249947
992.102	89.055254
992.285	88.709377
992.469	88.158270
992.652	88.633398
992.835	90.067062
993.019	90.370398
993.202	89.825026
993.385	89.296095
993.568	88.874103
993.752	88.794886
993.935	88.791217
994.118	88.857575
994.301	89.288162
994.484	89.768607
994.668	89.600682
994.851	89.377253
995.034	89.625770
995.217	89.553275
995.400	90.392382
995.583	90.254795
995.766	90.189398
995.949	90.565936
996.132	90.885783
996.315	91.234429
996.498	91.108550
996.681	91.473154
996.864	91.240131
997.047	91.181038
997.230	91.668450
997.413	91.369664
997.596	91.379934
997.778	91.654092
997.961	92.026528
998.144	92.160210
998.327	91.809925
998.510	92.008746
998.692	91.636549
998.875	91.620823
999.058	92.119998
999.241	92.145424
999.423	91.277963
999.606	90.789357
999.789	90.495959
999.971	90.268443
1000.154	90.782025
1000.336	91.247515
1000.519	90.661077
1000.701	90.236464
1000.884	90.572255
1001.067	90.447423
1001.249	90.415484
1001.431	91.519042
1001.614	92.563311
1001.796	92.793944
1001.979	92.330299
1002.161	91.348583
1002.344	90.527826
1002.526	90.457610
1002.708	90.770577
1002.891	89.861660
1003.073	89.351569
1003.255	89.158608
1003.438	88.525115
1003.620	87.964505
1003.802	87.818184
1003.984	88.485554
1004.166	89.138046
1004.349	89.826710
1004.531	90.822800
1004.713	92.208766
1004.895	93.057183
1005.077	92.990880
1005.259	93.387311
1005.441	93.917180
1005.623	94.565423
1005.805	95.071903
1005.987	94.929075
1006.169	94.055228
1006.351	93.563761
1006.533	93.116979
1006.715	91.916733
1006.897	91.516159
1007.079	91.959019
1007.261	91.904925
1007.443	91.551758
1007.625	91.053934
1007.806	90.603093
1007.988	90.334296
1008.170	91.177911
1008.352	92.087983
1008.534	91.762154
1008.715	90.922207
1008.897	91.665546
1009.079	91.653926
1009.260	92.206752
1009.442	92.519150
1009.624	92.108415
1009.805	91.616434
1009.987	91.550221
1010.169	91.294369
1010.350	91.165776
1010.532	91.474456
1010.713	92.774584
1010.895	92.283124
1011.076	92.160867
1011.258	91.325463
1011.439	91.696860
1011.621	92.587362
1011.802	93.613733
1011.983	94.274235
1012.165	94.150311
1012.346	93.645418
1012.527	93.023183
1012.709	92.420121
1012.890	92.625413
1013.071	93.070567
1013.253	93.584143
1013.434	93.640743
1013.615	93.111629
1013.796	92.445814
1013.978	92.572091
1014.159	93.874928
1014.340	95.187781
1014.521	96.470157
1014.702	96.608474
1014.883	96.438099
1015.064	95.800143
1015.245	95.463221
1015.427	95.101909
1015.608	94.972408
1015.789	95.465744
1015.970	95.630679
1016.151	95.231598
1016.332	95.087525
1016.512	94.951180
1016.693	95.536212
1016.874	95.679975
1017.055	95.951481
1017.236	96.739338
1017.417	96.642768
1017.598	96.572359
1017.779	96.435564
1017.959	95.526488
1018.140	95.227679
1018.321	94.269609
1018.502	93.862429
1018.682	93.394943
1018.863	92.883169
1019.044	93.264849
1019.224	92.517694
1019.405	92.817474
1019.586	93.442187
1019.766	93.546653
1019.947	93.749945
1020.127	92.992937
1020.308	92.501895
1020.488	92.376500
1020.669	92.220953
1020.849	91.757045
1021.030	91.305566
1021.210	89.962808
1021.391	88.459958
1021.571	87.858893
1021.752	88.166584
1021.932	88.199439
1022.112	89.055184
1022.293	89.422784
1022.473	89.925944
1022.653	90.956262
1022.834	91.980486
1023.014	92.270732
1023.194	93.349055
1023.374	93.744809
1023.555	93.864641
1023.735	93.345529
1023.915	93.006299
1024.095	92.883043
1024.275	93.725950
1024.455	94.080234
1024.635	93.645758
1024.816	92.985292
1024.996	91.988951
1025.176	92.082488
1025.356	93.265148
1025.536	93.188186
1025.716	93.288905
1025.896	93.767514
1026.076	93.036825
1026.256	92.718520
1026.436	92.722367
1026.615	92.476356
1026.795	93.117191
1026.975	93.910507
1027.155	94.413248
1027.335	93.998909
1027.515	94.154275
1027.695	93.714525
1027.874	92.752019
1028.054	93.680741
1028.234	93.310733
1028.413	92.056431
1028.593	91.969861
1028.773	91.014146
1028.953	90.616582
1029.132	89.848169
1029.312	89.922495
1029.491	91.041933
1029.671	92.365070
1029.851	93.722581
1030.030	93.683183
1030.210	94.257936
1030.389	94.855585
1030.569	94.505944
1030.748	95.483811
1030.928	96.096859
1031.107	96.333008
1031.286	96.707702
1031.466	95.738654
1031.645	95.149811
1031.825	94.862728
1032.004	94.744802
1032.183	94.666414
1032.363	94.649957
1032.542	95.442787
1032.721	95.576986
1032.900	95.130391
1033.080	95.776959
1033.259	95.305325
1033.438	94.817712
1033.617	94.616997
1033.796	94.693475
1033.975	94.962398
1034.155	95.182450
1034.334	95.987778
1034.513	95.360439
1034.692	94.504818
1034.871	94.512572
1035.050	94.357794
1035.229	95.794248
1035.408	96.650864
1035.587	97.000998
1035.766	96.928233
1035.945	95.869599
1036.124	94.571193
1036.303	92.570839
1036.481	92.581926
1036.660	94.132425
1036.839	94.522518
1037.018	95.186666
1037.197	94.842315
1037.376	94.576360
1037.554	93.948924
1037.733	94.407091
1037.912	94.805876
1038.091	95.407073
1038.269	96.838251
1038.448	96.111232
1038.627	94.223312
1038.805	93.720307
1038.984	93.264630
1039.162	92.642742
1039.341	92.654698
1039.520	93.339042
1039.698	92.401949
1039.877	92.036243
1040.055	92.013250
1040.234	92.257260
1040.412	93.127483
1040.591	94.524960
1040.769	95.182085
1040.947	95.098079
1041.126	94.301373
1041.304	93.706271
1041.483	93.425240
1041.661	94.412056
1041.839	93.603864
1042.017	92.414285
1042.196	92.278498
1042.374	92.472953
1042.552	91.859623
1042.730	91.154575
1042.909	91.697382
1043.087	93.194383
1043.265	94.359595
1043.443	93.812789
1043.621	93.686460
1043.799	94.695194
1043.978	95.009255
1044.156	94.408835
1044.334	94.004648
1044.512	93.745035
1044.690	93.689478
1044.868	93.590717
1045.046	92.025700
1045.224	90.784795
1045.402	91.230852
1045.580	90.479027
1045.758	90.278183
1045.935	91.368132
1046.113	92.149193
1046.291	92.933477
1046.469	94.328351
1046.647	95.020771
1046.825	93.964940
1047.002	94.928205
1047.180	95.843588
1047.358	95.550137
1047.536	95.730250
1047.713	96.397567
1047.891	95.332626
1048.069	95.329977
1048.246	94.245333
1048.424	93.202710
1048.602	92.891829
1048.779	93.786250
1048.957	93.791302
1049.134	93.384883
1049.312	93.763521
1049.489	93.649357
1049.667	93.231413
1049.844	94.308472
1050.022	93.418005
1050.199	93.545221
1050.377	92.907829
1050.554	92.946304
1050.731	92.259126
1050.909	91.525509
1051.086	90.859139
1051.263	89.839801
1051.441	89.832174
1051.618	89.964178
1051.795	89.571341
1051.973	89.866867
1052.150	89.920365
1052.327	90.419501
1052.504	90.237470
1052.681	89.638858
1052.859	89.506452
1053.036	90.374115
1053.213	91.501388
1053.390	91.937473
1053.567	91.672980
1053.744	91.755420
1053.921	92.379033
1054.098	92.831954
1054.275	93.367957
1054.452	92.641698
1054.629	92.718209
1054.806	93.418661
1054.983	92.778419
1055.160	92.923948
1055.337	93.411798
1055.514	93.405781
1055.691	93.015090
1055.868	92.394766
1056.044	92.094169
1056.221	91.604721
1056.398	91.990183
1056.575	91.874094
1056.751	91.481222
1056.928	91.291668
1057.105	90.734533
1057.282	90.256519
1057.458	89.880423
1057.635	89.809835
1057.812	90.356778
1057.988	89.522588
1058.165	88.940196
1058.341	88.489349
1058.518	88.920468
1058.694	89.114256
1058.871	89.584319
1059.047	89.268594
1059.224	88.641280
1059.401	88.493045
1059.577	88.393324
1059.753	88.120709
1059.930	88.633589
1060.106	88.835243
1060.282	89.182815
1060.459	88.912360
1060.635	88.398816
1060.812	87.915733
1060.988	88.008213
1061.164	88.309631
1061.340	88.769346
1061.517	88.921218
1061.693	88.785812
1061.869	89.205338
1062.045	89.364186
1062.221	89.301071
1062.398	88.987488
1062.574	89.462395
1062.750	90.118328
1062.926	90.848221
1063.102	90.521192
1063.278	89.916512
1063.454	89.754526
1063.630	89.387755
1063.806	89.286444
1063.982	89.893214
1064.158	90.092976
1064.334	90.475793
1064.510	90.233526
1064.686	89.580393
1064.862	89.098871
1065.038	88.889267
1065.214	88.970813
1065.389	88.553979
1065.565	89.064222
1065.741	89.386495
1065.917	89.522426
1066.093	89.177816
1066.268	88.985011
1066.444	89.003963
1066.620	89.735983
1066.795	89.449545
1066.971	89.616288
1067.147	89.805713
1067.322	90.123131
1067.498	89.542902
1067.673	88.607671
1067.849	87.889879
1068.025	88.300951
1068.200	89.415302
1068.376	89.959842
1068.551	89.421709
1068.727	89.496939
1068.902	88.911782
1069.078	88.296279
1069.253	88.390139
1069.428	88.767886
1069.604	88.965910
1069.779	88.141631
1069.954	87.922987
1070.130	87.338651
1070.305	87.120311
1070.480	87.307030
1070.656	87.312033
1070.831	87.728798
1071.006	87.589613
1071.181	87.810082
1071.357	88.164366
1071.532	88.992571
1071.707	89.925950
1071.882	89.933263
1072.057	89.989560
1072.232	89.782902
1072.407	88.906405
1072.582	89.213627
1072.757	89.311200
1072.932	90.581803
1073.107	90.527143
1073.282	89.723526
1073.457	88.726530
1073.632	88.371207
1073.807	88.672200
1073.982	87.748269
1074.157	86.693103
1074.332	86.913931
1074.507	86.545178
1074.682	86.059323
1074.856	84.900978
1075.031	84.019262
1075.206	84.320897
1075.381	84.856897
1075.556	85.003876
1075.730	84.656949
1075.905	85.035253
1076.080	85.365607
1076.254	85.713665
1076.429	86.134886
1076.604	86.833732
1076.778	87.174206
1076.953	87.858056
1077.127	87.441678
1077.302	86.251035
1077.477	85.764586
1077.651	85.650635
1077.826	85.775505
1078.000	86.001869
1078.175	86.135581
1078.349	85.723781
1078.523	85.772229
1078.698	86.130703
1078.872	85.942996
1079.047	86.184589
1079.221	86.861253
1079.395	87.488228
1079.570	87.417290
1079.744	87.111727
1079.918	86.576681
1080.092	86.434027
1080.267	86.333925
1080.441	86.222925
1080.615	86.256752
1080.789	86.711300
1080.963	86.490533
1081.137	85.640826
1081.312	84.560732
1081.486	84.247640
1081.660	84.504347
1081.834	84.980276
1082.008	84.206405
1082.182	84.116951
1082.356	83.588665
1082.530	82.880336
1082.704	81.780902
1082.878	81.537912
1083.052	82.537926
1083.226	83.163467
1083.400	83.214382
1083.573	82.871777
1083.747	82.583236
1083.921	82.703221
1084.095	82.484317
1084.269	82.348890
1084.443	81.731084
1084.616	82.808765
1084.790	83.173194
1084.964	82.599415
1085.138	82.388782
1085.311	82.339190
1085.485	82.731452
1085.659	82.604643
1085.832	82.484075
1086.006	82.026630
1086.179	81.596663
1086.353	81.690304
1086.527	80.538648
1086.700	80.120792
1086.874	79.691213
1087.047	79.371829
1087.221	79.573033
1087.394	79.668488
1087.568	79.735727
1087.741	80.567795
1087.914	80.806011
1088.088	81.550510
1088.261	82.157240
1088.435	82.353733
1088.608	82.288282
1088.781	82.617938
1088.954	83.430922
1089.128	83.471418
1089.301	82.952888
1089.474	82.980927
1089.647	82.004914
1089.821	82.182974
1089.994	81.560526
1090.167	81.831568
1090.340	82.272752
1090.513	81.615155
1090.686	80.726764
1090.859	80.101771
1091.032	80.042178
1091.206	80.070500
1091.379	79.915692
1091.552	79.729958
1091.725	79.176904
1091.898	79.745153
1092.071	79.732190
1092.244	79.165093
1092.416	79.806518
1092.589	80.158418
1092.762	79.844669
1092.935	79.668451
1093.108	79.059762
1093.281	78.698203
1093.453	78.451907
1093.626	78.903518
1093.799	78.730306
1093.972	78.075221
1094.145	78.494132
1094.317	78.748188
1094.490	79.352659
1094.663	79.570500
1094.835	79.006472
1095.008	78.933469
1095.181	78.736852
1095.353	79.045863
1095.526	79.066055
1095.698	78.578075
1095.871	78.801869
1096.043	78.360559
1096.216	77.621152
1096.388	77.218623
1096.561	76.303704
1096.733	76.078654
1096.906	76.824171
1097.078	77.523616
1097.250	77.743903
1097.423	77.234894
1097.595	77.564068
1097.768	77.705632
1097.940	77.968523
1098.112	78.193376
1098.284	77.946602
1098.457	78.714159
1098.629	79.267684
1098.801	79.494840
1098.973	78.951763
1099.146	78.668552
1099.318	78.928940
1099.490	78.717276
1099.662	78.761454
1099.834	78.481562
1100.006	77.835632
1100.178	77.699199
1100.350	77.330934
1100.522	77.254688
1100.694	76.508626
1100.866	76.191984
1101.038	76.265593
1101.210	75.842643
1101.382	75.804672
1101.554	75.191316
1101.726	75.179200
1101.898	75.316188
1102.070	75.778960
1102.241	76.333826
1102.413	76.165899
1102.585	75.560749
1102.757	75.597900
1102.929	74.990647
1103.100	74.640083
1103.272	73.917924
1103.444	74.112278
1103.616	73.906336
1103.787	74.023696
1103.959	73.932559
1104.130	73.306077
1104.302	73.057058
1104.474	72.906234
1104.645	72.284423
1104.817	72.182461
1104.988	72.135915
1105.160	72.340180
1105.331	71.671012
1105.503	71.217050
1105.674	70.937484
1105.846	70.405716
1106.017	70.307393
1106.189	69.862028
1106.360	69.754737
1106.531	70.449620
1106.703	71.186164
1106.874	71.566130
1107.045	71.749725
1107.217	72.082622
1107.388	72.242471
1107.559	72.033223
1107.730	71.676503
1107.902	71.930930
1108.073	72.593686
1108.244	73.468908
1108.415	73.533126
1108.586	72.738498
1108.757	72.259483
1108.929	72.001049
1109.100	71.580254
1109.271	71.588258
1109.442	71.696177
1109.613	72.198823
1109.784	72.040823
1109.955	72.130225
1110.126	71.707192
1110.297	71.170229
1110.468	71.606205
1110.639	72.151254
1110.809	72.304581
1110.980	73.046074
1111.151	73.352711
1111.322	73.994569
1111.493	74.167228
1111.664	74.320693
1111.834	74.000418
1112.005	73.996000
1112.176	74.551426
1112.347	74.399567
1112.517	73.621109
1112.688	73.261922
1112.859	72.389684
1113.029	72.102123
1113.200	71.929047
1113.371	71.426219
1113.541	70.721250
1113.712	70.117281
1113.882	69.457385
1114.053	68.690333
1114.223	68.483148
1114.394	68.839898
1114.564	68.491513
1114.735	68.176622
1114.905	67.653527
1115.076	66.624952
1115.246	66.102970
1115.416	65.693113
1115.587	65.469063
1115.757	65.365733
1115.927	65.409538
1116.098	64.869914
1116.268	64.367042
1116.438	64.671899
1116.609	65.034907
1116.779	65.262217
1116.949	65.757116
1117.119	66.004038
1117.289	66.253709
1117.459	66.742413
1117.630	67.358254
1117.800	67.330921
1117.970	67.451366
1118.140	67.556170
1118.310	67.117172
1118.480	67.094437
1118.650	67.191713
1118.820	66.944199
1118.990	67.062262
1119.160	67.320358
1119.330	66.584482
1119.500	65.948071
1119.670	65.696266
1119.840	65.997615
1120.010	65.837304
1120.179	65.874184
1120.349	65.939530
1120.519	65.630928
1120.689	65.565711
1120.859	65.144872
1121.028	65.096130
1121.198	65.868778
1121.368	66.346334
1121.538	66.343246
1121.707	66.286295
1121.877	66.402922
1122.047	66.612165
1122.216	66.319461
1122.386	66.010650
1122.555	65.531215
1122.725	65.622286
1122.894	65.062955
1123.064	64.178171
1123.233	63.594058
1123.403	63.579781
1123.573	63.267464
1123.742	62.872863
1123.911	62.568997
1124.081	62.271679
1124.250	62.445765
1124.419	62.719914
1124.589	62.960729
1124.758	63.248149
1124.927	63.168672
1125.097	62.672048
1125.266	62.264832
1125.435	62.057715
1125.605	62.289863
1125.774	62.245431
1125.943	62.209212
1126.112	61.801083
1126.281	62.179896
1126.450	62.186582
1126.620	62.087795
1126.789	62.012217
1126.958	62.154568
1127.127	62.331662
1127.296	62.712000
1127.465	62.569639
1127.634	62.461557
1127.803	62.836627
1127.972	62.891841
1128.141	62.003740
1128.310	61.388445
1128.479	60.989366
1128.648	60.831637
1128.817	60.816177
1128.985	60.751236
1129.154	60.107563
1129.323	59.889209
1129.492	59.940887
1129.661	59.346981
1129.829	59.334932
1129.998	59.408341
1130.167	59.309526
1130.336	59.104374
1130.504	59.322981
1130.673	59.235507
1130.842	59.166261
1131.010	59.285336
1131.179	58.724970
1131.347	58.510207
1131.516	58.218005
1131.685	57.927329
1131.853	57.898124
1132.022	58.376928
1132.190	58.910760
1132.359	59.131737
1132.527	59.435671
1132.696	59.482156
1132.864	59.398859
1133.032	59.597820
1133.201	59.398718
1133.369	59.461956
1133.537	59.627715
1133.706	59.800394
1133.874	59.170506
1134.042	57.910017
1134.211	57.190660
1134.379	56.616368
1134.547	56.382659
1134.715	55.902828
1134.884	55.956645
1135.052	55.737490
1135.220	55.863182
1135.388	56.128840
1135.556	56.283868
1135.724	56.388151
1135.892	56.717844
1136.060	56.593060
1136.228	56.660615
1136.396	56.665490
1136.564	56.979915
1136.732	56.986067
1136.900	56.883864
1137.068	56.603884
1137.236	55.595043
1137.404	54.666384
1137.572	54.610135
1137.740	54.973614
1137.908	55.384339
1138.076	55.484731
1138.243	55.159119
1138.411	54.797304
1138.579	54.472784
1138.747	54.432979
1138.914	54.096058
1139.082	54.224518
1139.250	54.517333
1139.417	54.232712
1139.585	53.847159
1139.753	53.658243
1139.920	53.438580
1140.088	53.156121
1140.256	53.124571
1140.423	53.334998
1140.591	53.189076
1140.758	53.279209
1140.926	53.252276
1141.093	53.116377
1141.261	52.592363
1141.428	52.295976
1141.596	51.592319
1141.763	50.911109
1141.930	50.901207
1142.098	50.742593
1142.265	50.589406
1142.432	50.563461
1142.600	50.582326
1142.767	50.296173
1142.934	49.973815
1143.102	50.050748
1143.269	49.998462
1143.436	50.543382
1143.603	51.102315
1143.771	51.144753
1143.938	51.342929
1144.105	51.404366
1144.272	51.540249
1144.439	51.347599
1144.606	51.245339
1144.773	51.583457
1144.940	51.616940
1145.107	51.784144
1145.274	51.528121
1145.441	51.550309
1145.608	51.678819
1145.775	52.156477
1145.942	51.757064
1146.109	51.372891
1146.276	51.195537
1146.443	51.742981
1146.610	51.598722
1146.776	51.377866
1146.943	50.974261
1147.110	50.492861
1147.277	50.403792
1147.444	50.393251
1147.610	49.674961
1147.777	49.290914
1147.944	49.444478
1148.110	49.583377
1148.277	49.035856
1148.444	48.660406
1148.610	48.958222
1148.777	49.092345
1148.944	49.134198
1149.110	48.516341
1149.277	48.055631
1149.443	47.937257
1149.610	48.213992
1149.776	48.228572
1149.943	48.361177
1150.109	48.096192
1150.276	47.888237
1150.442	47.502003
1150.608	47.086198
1150.775	47.369330
1150.941	47.667407
1151.107	47.976066
1151.274	47.971341
1151.440	47.853674
1151.606	47.823015
1151.773	47.552113
1151.939	47.582291
1152.105	47.617105
1152.271	47.433104
1152.438	47.786770
1152.604	47.763978
1152.770	47.871354
1152.936	47.874532
1153.102	48.182051
1153.268	48.303599
1153.434	48.312108
1153.600	48.536710
1153.766	49.060531
1153.932	49.414850
1154.098	49.963017
1154.264	50.512506
1154.430	50.910381
1154.596	50.660093
1154.762	50.300228
1154.928	49.934432
1155.094	50.633290
1155.260	50.669515
1155.426	50.178065
1155.591	49.115375
1155.757	48.397231
1155.923	47.595336
1156.089	47.128277
1156.255	46.647370
1156.420	46.621830
1156.586	46.985501
1156.752	47.059162
1156.917	46.107538
1157.083	45.454216
1157.249	45.737622
1157.414	46.093096
1157.580	46.138737
1157.745	46.076805
1157.911	45.360025
1158.076	45.022724
1158.242	44.374263
1158.407	43.590338
1158.573	43.099877
1158.738	43.228327
1158.904	43.325562
1159.069	43.019685
1159.235	43.320376
1159.400	43.839731
1159.565	44.004470
1159.731	44.657155
1159.896	44.782630
1160.061	45.236067
1160.227	45.602723
1160.392	45.839886
1160.557	45.829260
1160.722	45.568330
1160.888	45.749251
1161.053	45.977146
1161.218	45.696608
1161.383	45.960082
1161.548	45.335770
1161.713	44.727579
1161.878	44.668544
1162.043	44.684138
1162.208	44.065562
1162.374	43.158272
1162.539	43.270865
1162.704	43.173421
1162.869	43.146216
1163.033	43.306626
1163.198	43.183468
1163.363	43.475149
1163.528	44.009122
1163.693	43.630038
1163.858	43.695036
1164.023	44.338705
1164.188	44.987618
1164.353	45.019751
1164.517	44.748862
1164.682	44.236743
1164.847	44.217725
1165.011	44.380764
1165.176	44.405255
1165.341	44.186228
1165.506	44.228323
1165.670	43.873250
1165.835	43.430337
1166.000	43.190634
1166.164	42.865441
1166.329	42.671833
1166.493	42.534227
1166.658	42.428457
1166.822	42.896595
1166.987	43.136781
1167.151	43.432568
1167.316	43.887185
1167.480	43.727006
1167.645	43.605061
1167.809	43.469403
1167.973	43.844444
1168.138	44.266724
1168.302	44.450140
1168.466	44.301797
1168.631	43.412905
1168.795	42.834687
1168.959	42.594520
1169.124	42.851781
1169.288	43.187679
1169.452	42.814073
1169.616	42.548483
1169.780	42.307269
1169.944	42.125691
1170.109	42.468331
1170.273	42.132185
1170.437	41.943882
1170.601	42.000473
1170.765	41.882226
1170.929	41.321492
1171.093	41.246952
1171.257	41.910805
1171.421	42.371298
1171.585	42.691933
1171.749	42.247404
1171.913	41.623242
1172.077	41.738372
1172.240	42.151412
1172.404	42.307796
1172.568	42.358912
1172.732	42.191228
1172.896	41.825713
1173.060	41.752092
1173.223	41.816994
1173.387	41.780682
1173.551	42.116063
1173.715	42.046471
1173.878	42.149714
1174.042	41.913033
1174.206	41.948344
1174.369	42.412571
1174.533	42.494247
1174.696	41.951486
1174.860	41.933084
1175.023	41.606947
1175.187	41.041582
1175.351	40.944870
1175.514	41.165917
1175.677	41.509562
1175.841	41.342384
1176.004	40.701709
1176.168	39.844021
1176.331	39.823279
1176.495	40.672533
1176.658	40.386300
1176.821	40.256224
1176.985	40.765564
1177.148	41.269196
1177.311	41.251570
1177.474	40.721404
1177.638	40.951947
1177.801	41.343800
1177.964	41.791084
1178.127	41.836958
1178.291	41.479519
1178.454	41.595496
1178.617	41.693916
1178.780	41.308817
1178.943	40.913657
1179.106	40.853727
1179.269	40.859960
1179.432	40.698199
1179.595	40.632449
1179.758	40.372024
1179.921	39.976162
1180.084	40.182396
1180.247	40.216349
1180.410	39.907119
1180.573	40.127056
1180.736	39.675480
1180.899	39.500175
1181.061	39.448824
1181.224	39.311388
1181.387	39.523022
1181.550	39.797642
1181.713	40.392719
1181.875	40.497003
1182.038	40.270743
1182.201	40.660331
1182.363	40.465718
1182.526	41.167125
1182.689	41.720843
1182.851	42.049772
1183.014	42.467401
1183.177	42.521976
1183.339	42.555479
1183.502	42.638006
1183.664	42.533316
1183.827	42.957914
1183.989	43.166079
1184.152	43.722018
1184.314	43.306372
1184.477	42.429265
1184.639	42.253112
1184.801	42.020459
1184.964	41.951366
1185.126	41.671413
1185.288	41.610275
1185.451	41.475993
1185.613	41.313124
1185.775	41.048793
1185.938	40.977877
1186.100	41.352715
1186.262	42.197634
1186.424	42.208627
1186.586	42.515969
1186.749	42.882529
1186.911	43.188839
1187.073	42.974223
1187.235	42.971814
1187.397	43.071709
1187.559	43.245975
1187.721	43.009024
1187.883	43.025612
1188.045	42.519359
1188.207	42.550390
1188.369	42.343896
1188.531	41.990702
1188.693	41.722422
1188.855	41.682497
1189.017	41.714441
1189.179	41.123226
1189.341	41.409852
1189.502	41.596885
1189.664	41.767526
1189.826	42.011386
1189.988	42.189796
1190.150	42.459543
1190.311	42.601898
1190.473	43.086775
1190.635	43.124489
1190.796	42.948910
1190.958	43.667214
1191.120	43.411307
1191.281	43.165333
1191.443	42.953996
1191.604	42.953666
1191.766	42.858560
1191.928	42.755470
1192.089	43.016537
1192.251	43.062465
1192.412	43.322906
1192.574	43.401884
1192.735	42.827351
1192.896	42.958894
1193.058	43.356637
1193.219	43.375764
1193.381	43.413210
1193.542	43.824606
1193.703	43.683769
1193.865	43.389083
1194.026	43.218113
1194.187	43.246206
1194.349	43.481675
1194.510	44.214489
1194.671	44.015210
1194.832	43.765739
1194.993	43.763015
1195.155	43.710295
1195.316	43.377013
1195.477	44.089800
1195.638	44.128117
1195.799	43.892856
1195.960	43.634086
1196.121	43.725473
1196.282	43.790974
1196.443	43.949582
1196.604	44.099902
1196.765	44.314382
1196.926	44.639551
1197.087	44.901108
1197.248	44.684201
1197.409	44.722756
1197.570	44.727516
1197.730	45.075942
1197.891	44.909273
1198.052	44.714223
1198.213	44.975443
1198.374	44.481435
1198.534	44.315000
1198.695	44.263625
1198.856	43.799619
1199.016	43.498583
1199.177	43.625164
1199.338	44.014796
1199.498	43.526140
1199.659	43.697453
1199.820	43.949613
1199.980	43.734634
1200.141	44.450760
1200.301	44.880306
1200.462	44.916689
1200.622	45.207935
1200.783	45.682087
1200.943	45.881095
1201.104	46.145856
1201.264	46.901508
1201.424	46.983577
1201.585	47.036816
1201.745	46.912226
1201.906	46.698492
1202.066	46.326966
1202.226	46.263028
1202.386	46.662974
1202.547	46.140811
1202.707	45.782724
1202.867	45.329837
1203.027	45.429720
1203.188	45.667656
1203.348	45.076777
1203.508	45.005749
1203.668	45.297236
1203.828	45.874576
1203.988	46.369405
1204.148	46.100955
1204.308	46.541523
1204.468	46.845996
1204.628	46.886792
1204.788	46.572163
1204.948	46.468137
1205.108	46.589530
1205.268	47.035255
1205.428	46.767278
1205.588	46.284292
1205.748	46.025118
1205.908	46.352429
1206.068	46.361285
1206.228	45.833545
1206.387	45.850683
1206.547	46.200574
1206.707	46.517440
1206.867	46.958298
1207.026	46.835792
1207.186	46.865333
1207.346	47.015542
1207.505	47.044515
1207.665	47.021651
1207.825	46.908371
1207.984	47.279770
1208.144	47.469155
1208.303	47.084995
1208.463	47.154516
1208.622	47.058733
1208.782	47.087878
1208.941	47.376374
1209.101	47.183923
1209.260	47.125696
1209.420	47.197321
1209.579	46.716750
1209.739	46.948598
1209.898	47.202538
1210.057	47.372510
1210.217	47.123967
1210.376	47.194362
1210.535	47.294242
1210.694	47.553468
1210.854	47.889135
1211.013	48.107230
1211.172	48.050917
1211.331	48.591568
1211.490	48.248967
1211.650	47.893152
1211.809	48.146045
1211.968	48.379247
1212.127	48.487848
1212.286	48.733503
1212.445	49.119330
1212.604	49.517803
1212.763	49.405183
1212.922	49.391006
1213.081	49.521660
1213.240	50.268081
1213.399	51.061821
1213.558	50.996689
1213.717	50.757096
1213.876	50.980018
1214.035	51.012888
1214.194	50.259648
1214.352	50.025056
1214.511	50.399715
1214.670	50.570682
1214.829	50.778971
1214.988	50.722642
1215.146	50.314374
1215.305	50.786918
1215.464	51.292757
1215.622	51.202142
1215.781	51.405957
1215.940	51.981361
1216.098	51.807406
1216.257	51.574079
1216.415	51.702855
1216.574	51.733042
1216.732	52.238807
1216.891	52.724517
1217.049	52.583643
1217.208	52.393596
1217.366	52.475786
1217.525	52.730204
1217.683	52.775581
1217.842	53.501491
1218.000	53.587572
1218.158	53.267464
1218.317	53.290076
1218.475	52.983389
1218.633	52.843841
1218.792	53.056064
1218.950	52.748132
1219.108	52.698070
1219.266	52.843574
1219.425	52.720927
1219.583	51.778719
1219.741	51.974162
1219.899	52.697076
1220.057	53.234529
1220.215	53.306653
1220.373	53.229399
1220.531	53.313918
1220.689	54.176915
1220.847	54.184164
1221.005	53.691730
1221.163	53.876494
1221.322	54.473184
1221.479	54.581583
1221.637	54.100878
1221.795	53.360142
1221.953	53.006738
1222.111	52.667198
1222.269	52.195734
1222.427	52.021906
1222.584	52.145373
1222.742	52.071649
1222.900	51.492663
1223.058	51.355168
1223.216	51.045921
1223.373	51.088985
1223.531	51.368804
1223.689	51.643237
1223.846	52.339555
1224.004	52.669693
1224.162	52.146992
1224.319	51.958749
1224.477	51.759413
1224.634	52.088761
1224.792	52.062208
1224.949	51.970778
1225.107	51.704632
1225.264	51.579551
1225.422	51.612166
1225.579	51.438211
1225.737	51.406334
1225.894	51.821670
1226.052	52.132771
1226.209	51.930602
1226.366	52.000290
1226.523	52.193261
1226.681	52.459990
1226.838	52.816066
1226.995	53.221946
1227.153	53.191628
1227.310	53.087537
1227.467	53.092912
1227.624	52.897292
1227.781	53.071927
1227.938	53.810496
1228.096	54.047000
1228.253	54.612838
1228.410	54.986258
1228.567	55.213294
1228.724	55.172919
1228.881	55.333571
1229.038	55.460927
1229.195	55.444758
1229.352	55.682108
1229.509	55.562191
1229.666	55.454410
1229.823	55.336131
1229.980	55.054057
1230.136	54.788833
1230.293	54.558461
1230.450	54.226202
1230.607	54.176409
1230.764	53.686945
1230.921	53.464765
1231.077	53.823110
1231.234	53.885172
1231.391	54.356253
1231.547	54.835107
1231.704	54.808692
1231.861	54.788330
1232.018	54.954692
1232.174	55.022860
1232.331	55.267538
1232.487	56.024127
1232.644	56.556014
1232.800	56.621688
1232.957	56.705151
1233.113	56.899401
1233.270	56.586151
1233.426	56.447310
1233.583	56.588302
1233.739	56.778649
1233.896	57.409722
1234.052	57.812210
1234.208	57.774464
1234.365	57.878144
1234.521	57.810045
1234.677	57.850973
1234.834	57.638837
1234.990	58.340189
1235.146	58.910672
1235.302	59.044565
1235.459	58.881935
1235.615	58.728773
1235.771	58.408024
1235.927	58.508006
1236.083	58.556721
1236.239	59.142396
1236.396	59.363375
1236.552	58.912787
1236.708	58.279970
1236.864	58.314338
1237.020	58.568921
1237.176	58.370193
1237.332	58.507717
1237.488	58.640933
1237.644	58.660332
1237.799	58.686308
1237.955	57.926621
1238.111	57.897231
1238.267	58.953538
1238.423	59.290266
1238.579	58.927506
1238.734	58.915296
1238.890	59.615172
1239.046	59.651069
1239.202	59.809929
1239.357	59.355056
1239.513	59.448771
1239.669	59.805833
1239.824	60.327971
1239.980	59.829656
1240.136	59.687603
1240.291	59.808129
1240.447	59.669618
1240.603	59.631163
1240.758	59.550830
1240.914	58.964885
1241.069	59.484090
1241.225	59.291213
1241.380	58.786887
1241.535	58.547189
1241.691	58.568259
1241.846	58.578915
1242.002	59.029900
1242.157	59.540515
1242.313	59.647369
1242.468	59.944827
1242.623	60.614431
1242.778	60.929657
1242.934	61.067555
1243.089	61.509187
1243.244	61.245504
1243.399	61.497055
1243.554	61.547470
1243.710	61.437439
1243.865	61.360543
1244.020	61.246469
1244.175	61.398591
1244.330	61.124663
1244.485	60.631294
1244.640	60.567544
1244.795	60.314232
1244.950	60.451549
1245.105	59.945184
1245.260	59.534645
1245.415	59.631901
1245.570	59.413047
1245.725	59.629401
1245.880	58.960905
1246.035	59.261168
1246.190	60.195395
1246.345	61.629144
1246.499	63.003526
1246.654	63.483534
1246.809	64.286253
1246.964	64.856885
1247.118	64.834176
1247.273	64.860664
1247.428	64.930705
1247.583	66.044582
1247.737	66.546726
1247.892	65.820083
1248.047	64.957153
1248.201	64.744039
1248.356	65.046915
1248.510	65.080993
1248.665	65.134857
1248.819	65.297605
1248.974	65.600327
1249.128	65.711756
1249.283	65.378445
1249.437	64.747313
1249.592	65.394201
1249.746	65.303964
1249.900	64.643716
1250.055	64.214844
1250.209	63.955466
1250.363	64.409869
1250.518	64.452258
1250.672	64.334744
1250.826	64.091721
1250.981	63.986971
1251.135	64.118699
1251.289	64.039249
1251.443	63.905813
1251.597	64.228726
1251.751	65.125928
1251.906	65.870217
1252.060	65.468626
1252.214	64.993741
1252.368	64.831074
1252.522	65.465375
1252.676	66.175692
1252.830	66.925966
1252.984	67.547978
1253.138	68.071742
1253.292	68.219486
1253.446	67.602344
1253.600	66.598994
1253.754	66.757061
1253.907	66.372354
1254.061	66.734126
1254.215	66.482114
1254.369	65.883653
1254.523	65.112272
1254.677	64.372860
1254.830	64.640914
1254.984	64.657261
1255.138	64.294956
1255.292	65.062897
1255.445	64.737130
1255.599	65.146991
1255.752	65.358499
1255.906	65.289926
1256.060	65.346068
1256.213	65.561798
1256.367	65.658689
1256.520	65.762091
1256.674	65.689309
1256.827	66.048337
1256.981	66.168902
1257.134	66.838609
1257.288	67.302195
1257.441	67.324387
1257.594	67.642522
1257.748	67.807410
1257.901	68.230536
1258.055	68.415412
1258.208	67.864919
1258.361	67.970565
1258.515	68.073306
1258.668	67.834224
1258.821	67.820028
1258.974	67.495321
1259.127	67.637052
1259.281	67.833326
1259.434	68.300398
1259.587	68.787444
1259.740	68.716452
1259.893	68.688646
1260.046	68.498569
1260.199	69.092224
1260.352	68.803692
1260.505	67.784556
1260.658	68.404122
1260.811	68.477567
1260.964	67.608584
1261.117	67.396714
1261.270	66.404708
1261.423	66.446958
1261.576	66.904595
1261.729	66.777209
1261.882	66.398082
1262.035	66.674550
1262.188	68.282566
1262.340	68.756444
1262.493	69.124326
1262.646	69.951371
1262.798	70.381396
1262.951	71.060534
1263.104	71.625589
1263.257	71.275737
1263.409	71.791156
1263.562	71.347793
1263.714	71.933593
1263.867	71.499397
1264.020	71.978494
1264.172	71.673303
1264.325	70.693064
1264.477	70.637042
1264.630	70.508532
1264.782	70.433304
1264.935	70.809725
1265.087	70.170534
1265.240	70.219610
1265.392	69.727895
1265.544	70.758287
1265.697	69.534399
1265.849	68.547724
1266.001	69.158274
1266.154	68.729106
1266.306	69.928001
1266.458	70.225896
1266.610	70.034099
1266.762	70.638966
1266.915	70.879133
1267.067	71.018021
1267.219	70.480299
1267.371	70.975699
1267.523	71.319563
1267.675	71.442741
1267.828	71.946006
1267.979	71.097441
1268.132	70.020720
1268.284	69.783754
1268.436	70.614844
1268.588	70.247818
1268.740	70.561390
1268.891	69.798297
1269.043	70.053614
1269.195	70.349405
1269.347	71.229909
1269.499	71.351425
1269.651	71.548885
1269.803	72.738431
1269.955	73.909947
1270.106	74.393781
1270.258	75.392515
1270.410	75.225662
1270.562	75.417689
1270.713	75.395465
1270.865	76.062863
1271.017	75.793808
1271.168	74.569833
1271.320	74.142728
1271.471	73.719004
1271.623	73.121060
1271.775	71.672698
1271.926	70.620654
1272.078	71.268847
1272.229	71.492370
1272.381	71.549930
1272.532	71.597158
1272.684	71.478635
1272.835	72.650832
1272.986	72.142567
1273.138	72.096214
1273.289	71.806305
1273.440	71.826394
1273.592	71.946955
1273.743	71.636757
1273.894	71.037606
1274.046	70.148734
1274.197	69.786466
1274.348	69.407360
1274.500	68.441340
1274.651	68.769333
1274.802	68.478743
>>>>>>>>>> END of Data <<<<<<<<<<
