Date	2025年07月03日木曜日 09時57分03秒
Spectrometers	SR401765
ダーク	使用
リファレンス	使用
積分時間[msec]	300
平均回数	1
ｽﾑｰｼﾞﾝｸﾞ	5
Electrical Dark	USE
ピクセル数	3648
計測モード	反射率
保存開始波長[nm]	598.495
保存終了波長[nm]	1274.802
保存ﾋﾟｯﾁ波長[nm]	全波長

>>>>>>>>>> Data Start <<<<<<<<<<<<
598.495	27485.199661
598.713	27485.199661
598.931	27485.199661
599.148	27485.199661
599.366	0.000000
599.584	0.000000
599.802	3965.653683
600.020	120.467613
600.238	-45.864446
600.455	90.037898
600.673	73.975923
600.891	84.010137
601.109	87.145330
601.326	86.264632
601.544	83.958720
601.762	83.152497
601.979	82.806204
602.197	82.701192
602.415	82.975908
602.632	82.874168
602.850	82.725037
603.067	82.914384
603.285	83.097714
603.502	82.553440
603.720	82.091619
603.938	82.255956
604.155	82.466020
604.372	82.574720
604.590	82.731362
604.807	82.760237
605.025	82.995921
605.242	83.384145
605.460	83.461327
605.677	83.455258
605.894	83.778645
606.112	84.223087
606.329	84.739735
606.546	85.276146
606.764	85.606581
606.981	85.805369
607.198	85.861646
607.415	85.938985
607.633	86.131334
607.850	86.118372
608.067	85.955256
608.284	85.836618
608.501	85.580729
608.718	85.203784
608.935	84.719614
609.153	84.506733
609.370	84.482108
609.587	84.476075
609.804	84.460163
610.021	84.326181
610.238	84.543481
610.455	84.861456
610.672	84.977379
610.889	85.326498
611.106	85.481123
611.323	85.318741
611.540	85.415131
611.756	85.659524
611.973	85.753079
612.190	85.691222
612.407	85.680793
612.624	85.670537
612.841	85.923465
613.057	86.259498
613.274	86.287158
613.491	86.443398
613.708	87.034819
613.925	87.204594
614.141	86.860554
614.358	86.765015
614.575	86.813290
614.791	86.751519
615.008	86.651065
615.225	86.193533
615.441	85.584197
615.658	85.183407
615.874	85.033784
616.091	85.016236
616.307	84.905147
616.524	84.844654
616.740	84.710334
616.957	84.698020
617.173	84.645753
617.390	84.656244
617.606	84.724637
617.823	85.057741
618.039	85.381710
618.256	85.389601
618.472	85.204615
618.688	85.289674
618.905	85.560343
619.121	85.766615
619.337	85.955130
619.554	86.173521
619.770	86.059180
619.986	85.998579
620.202	86.113777
620.419	86.275380
620.635	86.528952
620.851	86.654770
621.067	86.629870
621.283	86.520581
621.499	86.578760
621.716	86.406008
621.932	86.108496
622.148	85.942524
622.364	85.715661
622.580	85.409976
622.796	85.144899
623.012	84.921705
623.228	84.803683
623.444	84.739216
623.660	84.770281
623.876	84.731661
624.092	84.763219
624.308	84.971419
624.524	85.026193
624.740	85.087881
624.955	84.974111
625.171	84.700983
625.387	84.383340
625.603	84.251308
625.819	84.184734
626.034	84.095443
626.250	83.915454
626.466	83.840656
626.682	83.635871
626.897	83.519337
627.113	83.594659
627.329	83.768002
627.544	83.864956
627.760	83.893022
627.976	83.766676
628.191	83.689267
628.407	83.873541
628.623	84.240260
628.838	84.486198
629.054	84.604491
629.269	84.871402
629.485	84.970416
629.700	85.236488
629.916	85.601640
630.131	85.870746
630.347	86.053808
630.562	85.996895
630.777	85.684037
630.993	85.268741
631.208	84.828745
631.424	84.733556
631.639	84.707264
631.854	84.602215
632.070	84.533759
632.285	84.659869
632.500	84.820589
632.715	84.850158
632.931	84.876577
633.146	84.892246
633.361	84.868744
633.576	85.023149
633.791	84.935591
634.007	84.749715
634.222	84.960427
634.437	84.882079
634.652	84.465655
634.867	84.223732
635.082	84.369127
635.297	84.580897
635.512	84.868465
635.727	85.321653
635.942	85.692505
636.157	86.117562
636.372	86.287217
636.587	85.974133
636.802	85.728353
637.017	85.677867
637.232	85.699605
637.447	85.780933
637.662	85.862823
637.876	85.712093
638.091	85.277841
638.306	84.810249
638.521	84.353347
638.736	84.251001
638.951	84.326556
639.165	84.355442
639.380	84.419212
639.595	84.339677
639.809	84.062548
640.024	83.892246
640.239	84.118272
640.453	84.553362
640.668	84.854832
640.883	85.122449
641.097	85.186585
641.312	85.205135
641.526	85.194771
641.741	85.312183
641.955	85.365979
642.170	85.341028
642.384	85.530459
642.599	85.619590
642.813	85.688389
643.028	86.060809
643.242	86.457808
643.457	86.778319
643.671	86.957768
643.885	86.955487
644.100	86.823981
644.314	86.800620
644.528	86.715387
644.743	86.341129
644.957	85.988550
645.171	85.571359
645.386	84.814813
645.600	84.259720
645.814	83.979516
646.028	83.846865
646.242	83.880067
646.457	83.696745
646.671	83.494013
646.885	83.737653
647.099	84.164106
647.313	84.356869
647.527	84.415734
647.741	84.780079
647.955	85.239347
648.169	85.712238
648.383	86.227192
648.597	86.813906
648.811	87.449482
649.025	87.868600
649.239	87.828221
649.453	87.678408
649.667	87.737952
649.881	88.208890
650.095	88.510278
650.309	88.243235
650.523	87.722996
650.737	87.395572
650.950	87.159591
651.164	87.156788
651.378	87.296703
651.592	87.280269
651.805	87.148363
652.019	87.271879
652.233	87.322328
652.447	87.140144
652.660	87.168966
652.874	87.422541
653.088	87.515871
653.301	87.651118
653.515	87.649739
653.728	87.502143
653.942	87.408309
654.156	87.187948
654.369	86.611780
654.583	85.889234
654.796	85.589643
655.010	85.399393
655.223	85.147317
655.437	84.947855
655.650	84.801972
655.863	84.624795
656.077	84.562519
656.290	84.776179
656.504	85.139221
656.717	85.275978
656.930	85.270987
657.144	85.064196
657.357	85.146378
657.570	85.382435
657.783	85.393126
657.997	85.157150
658.210	84.923804
658.423	84.690828
658.636	84.263876
658.849	83.961443
659.063	84.078158
659.276	84.462026
659.489	84.948917
659.702	85.126743
659.915	84.948926
660.128	84.548670
660.341	84.098571
660.554	83.910043
660.767	83.961826
660.980	84.243070
661.193	84.363549
661.406	84.346235
661.619	84.287568
661.832	84.102982
662.045	84.040972
662.258	84.160045
662.471	84.501026
662.684	84.733511
662.897	84.689418
663.110	84.404353
663.322	83.945906
663.535	83.478640
663.748	83.050687
663.961	82.751713
664.174	82.610885
664.386	82.410561
664.599	82.306127
664.812	82.329887
665.024	82.421833
665.237	82.547282
665.450	82.644710
665.662	82.732850
665.875	82.967842
666.088	83.267009
666.300	83.271157
666.513	83.078568
666.725	82.962882
666.938	82.860957
667.150	82.614438
667.363	82.618208
667.575	82.784498
667.788	82.931182
668.000	83.055891
668.213	83.285873
668.425	83.549555
668.638	83.676301
668.850	83.596697
669.062	83.331160
669.275	83.271173
669.487	83.533364
669.699	83.768592
669.912	83.895899
670.124	83.961934
670.336	83.879740
670.548	83.733420
670.761	83.437286
670.973	83.384089
671.185	83.692667
671.397	84.038465
671.609	84.028040
671.822	83.683890
672.034	83.289955
672.246	82.985914
672.458	82.917263
672.670	83.245058
672.882	83.313041
673.094	83.023080
673.306	82.751247
673.518	82.569999
673.730	82.482979
673.942	82.397883
674.154	82.337318
674.366	82.374390
674.578	82.380818
674.790	82.311956
675.002	82.044801
675.214	81.730841
675.425	81.499969
675.637	81.275600
675.849	80.943630
676.061	80.349606
676.273	79.751959
676.484	79.636954
676.696	79.652992
676.908	79.679997
677.120	79.661989
677.331	79.559087
677.543	79.400171
677.755	79.359014
677.966	79.500785
678.178	79.601353
678.389	79.872346
678.601	80.259428
678.813	80.241223
679.024	79.797717
679.236	79.230671
679.447	78.901059
679.659	78.616833
679.870	78.464735
680.082	78.379530
680.293	78.116292
680.505	78.189902
680.716	78.511936
680.927	78.605417
681.139	78.520246
681.350	78.582611
681.562	78.714717
681.773	78.704418
681.984	78.582900
682.196	78.451601
682.407	78.413713
682.618	78.229562
682.829	77.756098
683.041	77.201126
683.252	76.857076
683.463	76.806682
683.674	76.886109
683.885	76.912963
684.097	76.527657
684.308	76.264878
684.519	76.062740
684.730	75.801085
684.941	75.632194
685.152	75.679765
685.363	75.991715
685.574	76.233050
685.785	76.178148
685.996	75.904315
686.207	75.521569
686.418	75.493847
686.629	75.540792
686.840	75.631539
687.051	75.786079
687.262	76.028575
687.473	75.974871
687.684	75.423842
687.894	74.992673
688.105	74.862403
688.316	74.931424
688.527	75.053940
688.738	74.974137
688.948	74.786245
689.159	74.697301
689.370	74.573406
689.580	74.592279
689.791	74.593925
690.002	74.695734
690.212	74.889307
690.423	74.989287
690.634	74.952032
690.844	75.017022
691.055	75.324601
691.266	75.644698
691.476	75.654252
691.687	75.618682
691.897	75.332718
692.108	75.072460
692.318	74.878223
692.529	74.407166
692.739	73.963118
692.949	73.684870
693.160	73.521543
693.370	73.479182
693.581	73.536093
693.791	73.747481
694.001	73.616476
694.212	73.503986
694.422	73.552104
694.632	73.427495
694.843	73.212736
695.053	73.181499
695.263	73.205131
695.473	72.980429
695.683	72.477504
695.894	71.956808
696.104	71.653934
696.314	71.730503
696.524	71.806724
696.734	71.702253
696.944	71.578799
697.154	71.626958
697.365	71.560339
697.575	71.185844
697.785	70.894247
697.995	70.596419
698.205	70.265270
698.415	69.892546
698.625	69.560442
698.834	69.160127
699.044	68.668170
699.254	68.314897
699.464	67.959488
699.674	67.574328
699.884	67.344543
700.094	67.070540
700.304	66.803503
700.513	66.594691
700.723	66.187159
700.933	65.839169
701.143	65.750206
701.353	65.648726
701.562	65.456254
701.772	65.397684
701.982	65.570605
702.191	65.772699
702.401	65.982238
702.611	66.219710
702.820	66.224109
703.030	66.413614
703.239	66.650726
703.449	66.706658
703.659	66.899687
703.868	67.179141
704.078	67.190185
704.287	66.832428
704.497	66.463542
704.706	66.102788
704.916	65.864254
705.125	65.862356
705.334	65.598264
705.544	65.149377
705.753	64.777549
705.962	64.514153
706.172	64.110494
706.381	63.880332
706.590	63.788796
706.800	63.685339
707.009	63.632021
707.218	63.497272
707.428	63.286643
707.637	63.242220
707.846	63.213607
708.055	63.369861
708.264	63.402335
708.474	63.528159
708.683	63.644258
708.892	63.676413
709.101	63.699906
709.310	63.695514
709.519	63.560692
709.728	63.352650
709.937	63.176761
710.146	62.892440
710.355	62.314043
710.564	61.763480
710.773	61.327041
710.982	60.994248
711.191	60.678866
711.400	60.429166
711.609	60.210791
711.818	60.153100
712.027	60.172165
712.235	60.105347
712.444	60.108027
712.653	60.036056
712.862	59.832623
713.071	59.596454
713.279	59.356846
713.488	59.118478
713.697	58.810400
713.906	58.559482
714.114	58.320977
714.323	58.137504
714.532	57.991527
714.740	57.958611
714.949	58.167958
715.157	58.537652
715.366	58.687324
715.575	58.634705
715.783	58.506310
715.992	58.256068
716.200	57.945874
716.409	57.652076
716.617	57.391383
716.826	57.186856
717.034	56.927679
717.242	56.614754
717.451	56.164240
717.659	55.812873
717.868	55.693985
718.076	55.895529
718.284	56.196222
718.493	56.391450
718.701	56.518868
718.909	56.613857
719.118	56.731541
719.326	56.816373
719.534	56.887171
719.742	57.018081
719.951	57.274351
720.159	57.446786
720.367	57.495327
720.575	57.538315
720.783	57.799526
720.991	58.086147
721.199	58.122602
721.408	57.886733
721.616	57.491978
721.824	57.158018
722.032	57.076028
722.240	56.877343
722.448	56.616289
722.656	56.289504
722.864	55.928556
723.072	55.436884
723.280	55.019406
723.487	54.954041
723.695	55.121034
723.903	55.510699
724.111	55.842199
724.319	55.830054
724.527	55.946029
724.735	56.129289
724.942	56.297888
725.150	56.525553
725.358	56.701540
725.566	56.777165
725.773	56.720887
725.981	56.617564
726.189	56.507450
726.396	56.287468
726.604	56.056266
726.812	55.855168
727.019	55.646253
727.227	55.192461
727.435	54.823011
727.642	54.698015
727.850	54.697096
728.057	54.622163
728.265	54.493621
728.472	54.269731
728.680	54.041040
728.887	54.026710
729.095	54.099300
729.302	54.230983
729.509	54.566447
729.717	54.816480
729.924	54.822385
730.132	54.739274
730.339	54.689860
730.546	54.674768
730.753	54.805031
730.961	55.133335
731.168	55.552646
731.375	55.621642
731.583	55.507411
731.790	55.442137
731.997	55.357338
732.204	55.437185
732.411	55.667222
732.618	56.040384
732.826	56.415233
733.033	56.635818
733.240	56.656401
733.447	56.359669
733.654	56.356513
733.861	56.464946
734.068	56.630673
734.275	57.056829
734.482	57.373233
734.689	57.427373
734.896	57.211003
735.103	57.080525
735.310	57.025481
735.517	57.072582
735.724	57.398183
735.931	57.612168
736.137	57.688294
736.344	57.612924
736.551	57.320891
736.758	57.030827
736.965	56.754201
737.171	56.598141
737.378	56.404930
737.585	56.371829
737.792	56.461764
737.998	56.461812
738.205	56.518753
738.412	56.759773
738.618	56.968702
738.825	57.042464
739.032	57.247774
739.238	57.454198
739.445	57.604562
739.651	57.696259
739.858	57.817730
740.064	57.890507
740.271	58.034535
740.477	58.058224
740.684	57.859461
740.890	57.846840
741.097	57.989386
741.303	58.059254
741.510	58.286420
741.716	58.685290
741.922	58.978937
742.129	59.171452
742.335	59.274818
742.541	59.160361
742.748	59.140516
742.954	59.296320
743.160	59.510205
743.366	59.682437
743.573	59.656908
743.779	59.705609
743.985	59.748430
744.191	59.820000
744.397	59.794088
744.604	59.825483
744.810	60.102064
745.016	60.333178
745.222	60.478918
745.428	60.216783
745.634	59.961886
745.840	59.900153
746.046	59.637034
746.252	59.404758
746.458	59.303719
746.664	59.310369
746.870	59.235603
747.076	59.193835
747.282	59.205305
747.488	59.272966
747.694	59.427580
747.900	59.548624
748.105	59.654723
748.311	59.766718
748.517	59.812852
748.723	59.827216
748.929	59.573184
749.134	59.544686
749.340	59.552704
749.546	59.735947
749.752	59.838153
749.957	60.124888
750.163	60.549476
750.369	60.827478
750.574	61.037425
750.780	61.233028
750.985	61.433467
751.191	61.987732
751.397	62.379510
751.602	62.587798
751.808	62.503562
752.013	62.405274
752.219	62.305739
752.424	62.148012
752.630	62.418713
752.835	63.140923
753.041	63.710755
753.246	64.069761
753.451	64.208030
753.657	64.141263
753.862	64.106641
754.067	64.006255
754.273	63.938876
754.478	64.051248
754.683	64.406526
754.889	64.754435
755.094	64.894388
755.299	64.997366
755.504	65.175771
755.710	65.437023
755.915	65.961854
756.120	66.135279
756.325	66.087894
756.530	65.979716
756.735	65.691573
756.940	65.227922
757.146	64.631541
757.351	64.162923
757.556	63.954773
757.761	63.797590
757.966	63.549417
758.171	63.203167
758.376	63.161574
758.581	63.482065
758.786	64.114643
758.990	65.037177
759.195	65.973177
759.400	66.673939
759.605	66.844662
759.810	66.802134
760.015	66.662685
760.220	66.790721
760.424	66.995537
760.629	66.860170
760.834	66.757778
761.039	66.683388
761.244	66.485235
761.448	66.201847
761.653	65.869186
761.858	65.740743
762.062	65.708326
762.267	66.014354
762.472	66.223131
762.676	66.273075
762.881	66.523537
763.085	66.761352
763.290	66.928845
763.494	66.900208
763.699	66.772828
763.903	66.724178
764.108	66.772095
764.312	66.999837
764.517	67.210661
764.721	67.454685
764.926	68.021733
765.130	68.429760
765.335	68.395390
765.539	68.343511
765.743	68.426557
765.948	68.535894
766.152	68.624195
766.356	68.872628
766.560	68.913607
766.765	68.533710
766.969	68.304074
767.173	68.151854
767.377	68.228526
767.582	68.698489
767.786	69.161638
767.990	69.440733
768.194	69.741061
768.398	70.156671
768.602	70.458463
768.806	70.949349
769.010	71.759446
769.215	72.206913
769.419	72.255684
769.623	72.330431
769.827	72.397936
770.031	72.209360
770.234	71.921304
770.438	71.673230
770.642	71.710629
770.846	72.021355
771.050	72.362970
771.254	72.670869
771.458	72.839366
771.662	72.907485
771.866	72.991815
772.069	73.216301
772.273	73.548229
772.477	73.848781
772.681	74.093564
772.885	74.065871
773.088	73.628719
773.292	73.129596
773.496	72.869763
773.699	72.972238
773.903	73.161058
774.107	73.230775
774.310	73.153536
774.514	72.943897
774.717	72.874253
774.921	72.668956
775.124	72.334201
775.328	72.279441
775.531	72.206141
775.735	71.822762
775.938	71.354410
776.142	71.040659
776.345	70.826396
776.549	70.738508
776.752	70.780066
776.956	70.852524
777.159	71.070707
777.362	71.292825
777.566	71.293187
777.769	71.270781
777.972	71.237356
778.176	71.118158
778.379	71.012700
778.582	71.132677
778.785	71.090938
778.989	70.980138
779.192	70.984222
779.395	71.058614
779.598	71.138016
779.801	71.239560
780.004	71.333758
780.207	71.483220
780.411	71.725093
780.614	71.909209
780.817	71.766598
781.020	71.615811
781.223	71.671777
781.426	71.684097
781.629	71.728871
781.832	71.829600
782.035	72.003160
782.238	72.160441
782.440	72.360985
782.643	72.521531
782.846	72.593286
783.049	72.944243
783.252	73.583730
783.455	74.091828
783.658	74.216367
783.860	74.116082
784.063	74.088263
784.266	74.327037
784.469	74.725252
784.671	75.095939
784.874	75.280687
785.077	75.524251
785.279	75.779377
785.482	75.855415
785.685	75.865046
785.887	76.163562
786.090	76.714659
786.293	77.457588
786.495	77.782980
786.698	77.769337
786.900	77.702165
787.103	77.604479
787.305	77.609611
787.508	77.598735
787.710	77.421010
787.913	77.320228
788.115	77.144999
788.317	76.653646
788.520	75.885643
788.722	75.254111
788.924	74.863433
789.127	74.593880
789.329	74.594788
789.531	74.326306
789.734	74.004308
789.936	73.832623
790.138	73.626761
790.340	73.730627
790.543	74.190581
790.745	74.789331
790.947	75.173590
791.149	75.454777
791.351	75.729799
791.553	75.986640
791.756	76.458376
791.958	76.981673
792.160	77.472022
792.362	77.678256
792.564	77.777601
792.766	77.893707
792.968	78.022829
793.170	78.279701
793.372	78.526195
793.574	78.661886
793.776	78.550213
793.978	78.349956
794.180	77.967320
794.381	77.614661
794.583	77.577762
794.785	77.482223
794.987	77.225272
795.189	76.861800
795.391	76.748889
795.592	76.781311
795.794	77.080704
795.996	77.784752
796.198	78.372850
796.399	78.691219
796.601	78.795511
796.803	78.629389
797.004	78.223999
797.206	78.068816
797.407	78.199039
797.609	77.962307
797.811	77.548797
798.012	77.018521
798.214	76.338775
798.415	75.749607
798.617	75.526681
798.818	75.742789
799.020	76.504688
799.221	77.621620
799.423	78.342356
799.624	78.791255
799.826	79.560091
800.027	80.211488
800.228	80.456360
800.430	80.644921
800.631	80.963870
800.832	81.003599
801.034	80.423610
801.235	79.487480
801.436	78.543935
801.637	77.865573
801.839	77.242513
802.040	76.381140
802.241	75.586133
802.442	75.155497
802.643	74.766209
802.844	74.338995
803.046	74.348450
803.247	74.616249
803.448	74.895054
803.649	74.981954
803.850	75.225369
804.051	75.348558
804.252	75.555348
804.453	75.846061
804.654	76.030757
804.855	76.192060
805.056	76.449144
805.257	76.541202
805.458	76.685995
805.659	77.070902
805.859	77.623368
806.060	77.880224
806.261	78.308919
806.462	78.662459
806.663	78.781201
806.864	78.980205
807.064	79.059751
807.265	78.980248
807.466	79.002143
807.667	79.146758
807.867	79.030376
808.068	78.927305
808.269	78.850418
808.469	78.638560
808.670	78.640949
808.870	79.033565
809.071	79.451435
809.272	79.896516
809.472	80.337767
809.673	80.791385
809.873	81.170354
810.074	81.570942
810.274	81.705586
810.475	81.823602
810.675	82.007678
810.876	81.982168
811.076	81.929787
811.276	81.769813
811.477	81.337240
811.677	80.605837
811.878	79.718910
812.078	79.214029
812.278	79.005104
812.479	78.978023
812.679	79.273671
812.879	79.721164
813.079	80.299142
813.280	80.656684
813.480	80.642344
813.680	80.755438
813.880	81.225361
814.080	81.514460
814.280	81.446880
814.480	81.251257
814.681	81.102183
814.881	80.627509
815.081	79.916049
815.281	79.130102
815.481	78.602322
815.681	78.417112
815.881	78.181890
816.081	77.953690
816.281	78.074618
816.481	78.557996
816.681	79.029323
816.880	79.404604
817.080	79.642338
817.280	79.909309
817.480	80.059751
817.680	80.175968
817.880	80.424601
818.080	80.577083
818.279	80.454680
818.479	80.189168
818.679	79.739860
818.879	79.464570
819.078	79.299072
819.278	79.389852
819.478	79.353435
819.677	79.565323
819.877	79.784076
820.077	79.835712
820.276	80.281579
820.476	81.236725
820.675	82.136936
820.875	82.613325
821.074	82.630638
821.274	82.654429
821.473	82.549281
821.673	82.628201
821.872	82.660962
822.072	82.668500
822.271	82.924071
822.471	83.163731
822.670	82.845219
822.869	82.438939
823.069	81.942592
823.268	81.555926
823.467	81.362165
823.667	81.363098
823.866	81.668732
824.065	82.280327
824.265	82.974153
824.464	83.387031
824.663	83.386419
824.862	83.368042
825.061	83.457970
825.261	83.908702
825.460	84.634833
825.659	85.202574
825.858	85.451496
826.057	85.281691
826.256	84.791792
826.455	84.127304
826.654	83.479267
826.853	83.238556
827.052	83.590513
827.251	83.984277
827.450	84.203136
827.649	83.995660
827.848	83.440294
828.047	82.999278
828.246	82.641430
828.445	82.603182
828.644	82.599808
828.843	82.546477
829.041	82.220964
829.240	81.812088
829.439	81.364879
829.638	80.953957
829.836	80.790359
830.035	80.895621
830.234	81.197485
830.433	81.591466
830.631	81.548500
830.830	81.699221
831.029	82.274068
831.227	83.026482
831.426	83.330652
831.624	83.326196
831.823	83.264373
832.022	82.978828
832.220	82.547941
832.419	81.842206
832.617	80.954151
832.816	80.064037
833.014	79.172617
833.213	78.015198
833.411	77.122153
833.609	76.441877
833.808	76.026455
834.006	75.862555
834.205	75.917516
834.403	76.218560
834.601	76.546282
834.800	76.891228
834.998	77.505404
835.196	78.144307
835.394	79.105673
835.593	80.237751
835.791	81.097699
835.989	81.814930
836.187	82.545715
836.385	83.222286
836.584	83.565234
836.782	84.158552
836.980	84.862218
837.178	85.289196
837.376	85.242085
837.574	84.744647
837.772	84.015071
837.970	83.898926
838.168	84.089573
838.366	84.223872
838.564	84.333174
838.762	84.314057
838.960	83.806759
839.158	83.535643
839.356	83.275549
839.554	83.004761
839.752	82.911304
839.949	82.819131
840.147	82.729871
840.345	82.719704
840.543	82.422636
840.741	82.152436
840.938	82.201237
841.136	82.969097
841.334	83.591730
841.532	84.030385
841.729	84.567357
841.927	85.062197
842.125	85.528875
842.322	85.526944
842.520	84.933139
842.718	84.458032
842.915	84.198341
843.113	84.058668
843.310	83.761946
843.508	83.411175
843.705	83.289793
843.903	83.188019
844.100	83.045994
844.298	82.869416
844.495	83.104027
844.693	83.481394
844.890	83.771789
845.087	83.775143
845.285	83.609702
845.482	83.272159
845.679	82.994877
845.877	83.089070
846.074	83.368744
846.271	83.604812
846.469	83.192706
846.666	82.258358
846.863	81.728284
847.060	81.520483
847.257	81.359459
847.455	81.631681
847.652	82.156908
847.849	82.657832
848.046	82.745076
848.243	82.687529
848.440	82.623167
848.637	82.963270
848.834	83.615668
849.031	83.958479
849.228	84.279684
849.425	84.683333
849.622	84.606880
849.819	84.282919
850.016	83.982329
850.213	83.493064
850.410	83.188998
850.607	83.077388
850.804	83.104162
851.001	82.982501
851.198	83.371439
851.394	83.830266
851.591	84.210072
851.788	84.469873
851.985	84.497421
852.181	84.456728
852.378	84.781975
852.575	84.896765
852.772	84.746716
852.968	84.548150
853.165	84.728469
853.362	84.499179
853.558	84.146715
853.755	83.887510
853.951	83.370313
854.148	83.145652
854.345	83.517659
854.541	84.141731
854.738	84.766939
854.934	85.381895
855.131	85.861759
855.327	86.189829
855.523	86.705581
855.720	87.248055
855.916	87.599375
856.113	88.334008
856.309	88.855649
856.505	88.834403
856.702	88.449208
856.898	87.927121
857.094	87.378582
857.291	87.074936
857.487	86.344004
857.683	85.357422
857.879	84.674157
858.076	84.327522
858.272	84.145045
858.468	84.181649
858.664	84.172493
858.860	83.999486
859.056	83.975558
859.253	84.123811
859.449	83.986363
859.645	84.442860
859.841	85.389401
860.037	86.082095
860.233	86.469702
860.429	86.726198
860.625	86.639159
860.821	86.429600
861.017	86.442539
861.213	86.896258
861.409	87.535992
861.604	88.452461
861.800	88.849438
861.996	88.881765
862.192	88.935065
862.388	88.412103
862.584	87.783768
862.779	87.751763
862.975	88.026670
863.171	87.949512
863.367	87.372083
863.562	86.871802
863.758	86.430436
863.954	86.123524
864.149	85.771285
864.345	85.163949
864.541	85.372405
864.736	85.881341
864.932	85.937255
865.127	85.816998
865.323	85.930322
865.518	86.035920
865.714	85.989632
865.910	85.781382
866.105	85.633157
866.300	85.693636
866.496	85.684081
866.691	85.629745
866.887	85.730255
867.082	85.680986
867.277	85.315448
867.473	84.704217
867.668	84.363948
867.864	83.857332
868.059	83.576834
868.254	83.531733
868.449	83.353779
868.645	83.387006
868.840	82.978606
869.035	82.279526
869.230	81.920950
869.425	81.672594
869.621	81.990351
869.816	82.244109
870.011	82.334321
870.206	82.153179
870.401	81.667915
870.596	81.118905
870.791	80.688727
870.986	80.607626
871.181	80.338334
871.376	80.201974
871.571	80.389284
871.766	80.120425
871.961	79.903806
872.156	79.617739
872.351	79.639596
872.546	79.926103
872.741	80.152568
872.936	80.275803
873.130	80.430683
873.325	80.570209
873.520	80.532745
873.715	80.816719
873.910	81.431725
874.104	81.713117
874.299	82.450635
874.494	82.736493
874.688	82.783382
874.883	82.868373
875.078	82.743789
875.272	82.450749
875.467	82.167087
875.662	81.741392
875.856	80.687200
876.051	79.754124
876.245	79.368694
876.440	78.936020
876.634	78.904698
876.829	78.940860
877.023	78.887014
877.218	79.048052
877.412	79.329925
877.607	79.955361
877.801	80.945632
877.995	81.766576
878.190	82.047178
878.384	81.848400
878.578	81.711091
878.773	81.491314
878.967	81.415784
879.161	82.293262
879.356	83.086705
879.550	84.044566
879.744	85.055368
879.938	85.596531
880.133	86.388159
880.327	87.485289
880.521	88.760263
880.715	89.616134
880.909	90.205263
881.103	91.025622
881.297	90.759231
881.491	90.359928
881.685	89.504650
881.880	88.216469
882.073	87.191115
882.267	86.767744
882.461	86.324389
882.655	85.355193
882.849	85.060509
883.043	85.170635
883.237	84.751219
883.431	84.754228
883.625	84.953069
883.819	85.527100
884.013	86.351143
884.206	87.067660
884.400	87.560693
884.594	88.108430
884.788	89.366448
884.982	90.159454
885.175	90.601258
885.369	91.052917
885.563	91.416827
885.756	91.625704
885.950	91.743632
886.144	91.734768
886.337	91.756414
886.531	91.464622
886.724	91.031534
886.918	90.051618
887.112	89.095488
887.305	88.512447
887.499	88.034694
887.692	87.515187
887.885	87.190569
888.079	86.904584
888.272	86.691552
888.466	86.501616
888.659	86.881532
888.853	87.934642
889.046	89.461909
889.239	90.694725
889.433	91.186657
889.626	91.395025
889.819	90.937374
890.013	90.462008
890.206	90.023109
890.399	89.903595
890.592	90.015334
890.785	89.853079
890.979	89.232527
891.172	88.084401
891.365	87.156885
891.558	86.468761
891.751	86.162450
891.944	86.465219
892.137	86.726982
892.330	86.858905
892.524	86.539302
892.717	86.181352
892.910	85.610843
893.103	85.124960
893.296	85.285326
893.488	85.639399
893.681	86.201984
893.874	86.567376
894.067	86.955159
894.260	87.157110
894.453	86.943783
894.646	87.168893
894.839	87.734814
895.031	88.611950
895.224	89.368480
895.417	90.021440
895.610	90.303543
895.802	90.360836
895.995	90.300728
896.188	90.208527
896.381	90.351426
896.573	90.824941
896.766	90.901466
896.958	90.364056
897.151	90.010961
897.344	89.940583
897.536	89.886469
897.729	90.052282
897.921	89.601903
898.114	89.233080
898.306	88.751613
898.499	88.149811
898.691	87.924094
898.884	87.906788
899.076	88.096591
899.269	87.547563
899.461	86.660762
899.653	85.973887
899.846	85.352122
900.038	85.560895
900.230	86.113406
900.423	86.596706
900.615	87.100704
900.807	87.471303
901.000	87.620429
901.192	87.393991
901.384	87.286656
901.576	87.574398
901.768	87.509340
901.961	87.322247
902.153	87.330818
902.345	87.078421
902.537	87.135514
902.729	87.190066
902.921	87.043097
903.113	86.808943
903.305	86.982711
903.497	87.545170
903.689	87.738664
903.881	87.833618
904.073	87.790093
904.265	87.589171
904.457	87.468299
904.649	87.072771
904.841	86.842545
905.033	87.021687
905.224	87.323821
905.416	87.536608
905.608	87.531133
905.800	87.292325
905.992	87.375240
906.183	88.296155
906.375	89.045624
906.567	89.667462
906.759	89.756101
906.950	89.446496
907.142	89.208438
907.334	89.087692
907.525	88.761088
907.717	88.704437
907.909	88.943622
908.100	89.102270
908.292	88.531851
908.483	87.814092
908.675	87.497308
908.866	87.833443
909.058	88.128606
909.249	88.167216
909.441	87.890674
909.632	87.594870
909.824	87.123953
910.015	86.973992
910.206	87.031915
910.398	86.944492
910.589	86.951136
910.780	86.869245
910.972	87.060548
911.163	87.745886
911.354	88.216352
911.546	88.829126
911.737	89.670799
911.928	90.334110
912.119	90.313497
912.310	90.147757
912.502	90.137666
912.693	89.904173
912.884	89.726628
913.075	89.207730
913.266	88.325907
913.457	87.908767
913.648	87.894682
913.839	88.016172
914.030	88.060243
914.221	88.205856
914.412	88.340020
914.603	88.539189
914.794	89.057527
914.985	89.124117
915.176	89.209299
915.367	89.464482
915.558	89.439318
915.749	88.918223
915.940	87.972709
916.130	87.309784
916.321	87.039447
916.512	86.771881
916.703	86.939777
916.893	86.914659
917.084	86.411324
917.275	85.456305
917.466	84.795602
917.656	84.381327
917.847	84.128563
918.038	83.975148
918.228	84.212312
918.419	84.724570
918.609	85.169202
918.800	85.695632
918.990	86.503646
919.181	87.767248
919.372	89.066407
919.562	89.762223
919.753	89.934469
919.943	90.554657
920.133	91.513817
920.324	91.834666
920.514	91.284301
920.705	90.354879
920.895	88.956792
921.085	87.949651
921.276	87.381674
921.466	87.681865
921.656	88.036122
921.847	88.146554
922.037	87.952384
922.227	88.158606
922.417	88.030201
922.608	88.051372
922.798	88.630262
922.988	89.443165
923.178	89.772941
923.368	89.724671
923.558	89.565159
923.748	89.831787
923.939	90.620023
924.129	91.125788
924.319	90.655528
924.509	90.457274
924.699	90.281446
924.889	89.199540
925.079	87.942661
925.269	87.148203
925.459	86.662576
925.648	85.795667
925.838	84.687528
926.028	83.541261
926.218	83.152961
926.408	83.223553
926.598	83.218767
926.788	83.920763
926.977	85.193648
927.167	86.204614
927.357	87.223844
927.547	88.334505
927.736	89.357960
927.926	90.313365
928.116	91.395125
928.305	91.874490
928.495	91.997671
928.685	92.070137
928.874	91.333674
929.064	90.719129
929.253	90.577029
929.443	89.974465
929.633	89.203688
929.822	88.464811
930.012	88.146324
930.201	87.606174
930.391	86.953489
930.580	86.631373
930.769	86.901293
930.959	87.491225
931.148	88.344523
931.338	88.724072
931.527	89.198479
931.716	89.662729
931.906	89.743403
932.095	89.477076
932.284	89.417182
932.474	89.607636
932.663	89.568360
932.852	89.261366
933.041	89.031215
933.230	88.540920
933.420	88.699331
933.609	88.606492
933.798	88.526461
933.987	88.568695
934.176	88.765908
934.365	89.310397
934.554	89.898964
934.743	90.683507
934.932	91.109739
935.121	90.938563
935.310	91.004628
935.499	90.572416
935.688	90.386960
935.877	90.013752
936.066	89.963766
936.255	89.929052
936.444	89.701197
936.633	89.441912
936.822	89.114661
937.010	89.070542
937.199	89.171381
937.388	88.950487
937.577	88.853328
937.766	89.408670
937.954	90.468636
938.143	91.680469
938.332	92.734261
938.520	93.632514
938.709	93.917823
938.898	93.870706
939.086	93.652865
939.275	93.348360
939.464	93.344273
939.652	93.685273
939.841	92.949355
940.029	92.516041
940.218	92.235517
940.406	91.624139
940.595	90.815424
940.783	90.198975
940.972	89.916932
941.160	89.825766
941.349	90.375291
941.537	90.758625
941.725	90.733554
941.914	91.303030
942.102	91.452860
942.290	91.204482
942.479	90.935608
942.667	90.700630
942.855	90.571520
943.043	90.616876
943.232	90.873243
943.420	90.572400
943.608	90.256759
943.796	90.834636
943.984	90.788869
944.172	90.226615
944.361	89.854904
944.549	89.678521
944.737	89.651558
944.925	89.699215
945.113	89.884183
945.301	90.093661
945.489	90.748649
945.677	90.958796
945.865	90.144017
946.053	89.935545
946.241	90.198110
946.429	90.247215
946.617	90.742793
946.805	91.079282
946.992	91.900945
947.180	92.729148
947.368	93.224471
947.556	93.516247
947.744	94.786452
947.931	95.975856
948.119	96.609826
948.307	96.817999
948.495	97.485266
948.682	97.501436
948.870	97.191597
949.058	96.348584
949.245	95.019861
949.433	93.270627
949.621	91.762897
949.808	90.236335
949.996	88.882931
950.183	87.629301
950.371	86.889705
950.558	86.148852
950.746	85.490565
950.933	85.126565
951.121	84.680536
951.308	84.347341
951.496	84.709110
951.683	85.017452
951.870	85.283116
952.058	85.859712
952.245	86.313652
952.433	86.616913
952.620	86.329143
952.807	86.208110
952.994	86.547254
953.182	87.403975
953.369	88.194449
953.556	89.244558
953.743	90.224346
953.931	90.488127
954.118	90.754684
954.305	91.048189
954.492	91.119075
954.679	91.818434
954.866	91.920568
955.053	91.765693
955.240	91.400788
955.427	91.420764
955.615	91.077894
955.802	91.034376
955.989	91.439758
956.175	91.646816
956.362	92.286693
956.549	93.142036
956.736	94.016386
956.923	95.286920
957.110	96.821608
957.297	98.251681
957.484	99.093237
957.671	99.109885
957.857	98.689095
958.044	97.835960
958.231	96.690267
958.418	96.116717
958.604	94.536918
958.791	93.008901
958.978	92.009706
959.165	90.140656
959.351	87.889685
959.538	86.330846
959.724	85.698555
959.911	85.550735
960.098	85.497938
960.284	86.258838
960.471	86.174853
960.657	87.098717
960.844	87.884328
961.030	88.017618
961.217	88.494260
961.403	89.520873
961.590	89.947117
961.776	90.457098
961.963	90.606418
962.149	90.871271
962.335	90.862764
962.522	90.965314
962.708	90.455913
962.894	89.544334
963.081	89.568500
963.267	89.922061
963.453	90.021781
963.639	90.213377
963.826	90.041176
964.012	90.058576
964.198	90.143085
964.384	89.520426
964.570	88.992959
964.756	88.925147
964.943	89.792913
965.129	89.575940
965.315	88.520617
965.501	87.546260
965.687	86.613093
965.873	86.189910
966.059	85.941767
966.245	85.736289
966.431	86.155747
966.617	86.292898
966.803	86.388029
966.989	86.077993
967.174	86.688006
967.360	87.606855
967.546	88.527965
967.732	89.257062
967.918	89.300567
968.104	89.220127
968.289	89.275742
968.475	88.614350
968.661	88.639493
968.847	88.418340
969.032	88.119073
969.218	87.668485
969.404	87.731317
969.589	88.307518
969.775	89.298184
969.961	90.310165
970.146	91.135215
970.332	92.001899
970.517	93.493431
970.703	94.469214
970.888	95.623444
971.074	96.966473
971.260	97.718135
971.445	97.822219
971.630	97.424534
971.816	96.816693
972.001	96.607200
972.187	96.685304
972.372	96.126681
972.557	95.478128
972.743	94.952720
972.928	94.238816
973.113	92.765619
973.299	91.825513
973.484	91.396280
973.669	90.742285
973.854	90.312138
974.040	90.550309
974.225	90.476723
974.410	90.249796
974.595	89.656908
974.780	89.008857
974.965	88.903363
975.151	89.401244
975.336	90.238036
975.521	91.330838
975.706	92.136366
975.891	92.722500
976.076	92.731986
976.261	92.608948
976.446	92.422618
976.631	93.228297
976.816	93.873506
977.001	93.932586
977.186	93.527937
977.370	92.780770
977.555	92.163239
977.740	91.781512
977.925	91.428930
978.110	90.009039
978.295	89.145015
978.479	89.069503
978.664	88.760622
978.849	88.397862
979.034	88.025011
979.218	88.560113
979.403	89.456368
979.588	88.550118
979.772	88.244844
979.957	88.172056
980.141	88.731499
980.326	88.526606
980.511	88.285016
980.695	88.193154
980.880	88.350952
981.064	88.922132
981.249	89.199248
981.433	88.513439
981.618	89.369743
981.802	89.918188
981.987	90.491929
982.171	90.949573
982.355	91.526374
982.540	92.260502
982.724	92.814291
982.908	93.584181
983.093	94.117338
983.277	93.445637
983.461	94.109017
983.646	95.114405
983.830	95.451310
984.014	95.125891
984.198	93.912844
984.382	93.514114
984.567	93.939687
984.751	94.042190
984.935	94.426977
985.119	94.641970
985.303	95.232689
985.487	94.611265
985.671	93.690965
985.855	93.585176
986.039	93.568577
986.223	94.753087
986.407	95.458814
986.591	94.995565
986.775	94.486518
986.959	93.741352
987.143	92.935966
987.327	92.425717
987.511	92.398578
987.695	92.391367
987.879	92.304689
988.062	92.567904
988.246	92.471339
988.430	92.552347
988.614	93.553970
988.797	94.527609
988.981	95.146865
989.165	96.023588
989.349	97.684837
989.532	99.037209
989.716	99.562837
989.900	99.629980
990.083	99.702182
990.267	99.795181
990.450	100.006203
990.634	99.149669
990.817	97.729930
991.001	97.155918
991.184	96.274755
991.368	94.814682
991.551	94.480408
991.735	94.708857
991.918	94.535169
992.102	94.530319
992.285	94.103648
992.469	93.121111
992.652	92.641164
992.835	92.928045
993.019	92.900813
993.202	93.318105
993.385	93.417780
993.568	93.670894
993.752	93.489695
993.935	93.393193
994.118	93.163647
994.301	93.852063
994.484	94.740434
994.668	95.551129
994.851	96.700986
995.034	96.470757
995.217	95.800614
995.400	95.700398
995.583	94.659617
995.766	95.057601
995.949	95.220712
996.132	95.523368
996.315	95.579734
996.498	95.930339
996.681	95.894425
996.864	95.315752
997.047	95.952178
997.230	96.396142
997.413	96.466663
997.596	96.159518
997.778	94.673655
997.961	94.468319
998.144	94.323530
998.327	93.795362
998.510	93.008157
998.692	91.951788
998.875	91.315316
999.058	90.476396
999.241	89.886622
999.423	89.773587
999.606	89.248553
999.789	89.130260
999.971	89.188081
1000.154	89.190644
1000.336	89.123136
1000.519	88.472114
1000.701	88.757601
1000.884	89.561413
1001.067	90.176275
1001.249	90.372479
1001.431	90.656419
1001.614	91.385805
1001.796	92.274505
1001.979	92.671041
1002.161	93.178255
1002.344	94.122382
1002.526	95.079166
1002.708	95.272183
1002.891	94.127453
1003.073	94.261820
1003.255	95.171030
1003.438	95.074624
1003.620	94.874306
1003.802	94.621780
1003.984	94.571684
1004.166	94.536092
1004.349	94.369262
1004.531	95.262821
1004.713	96.009143
1004.895	96.676549
1005.077	95.865398
1005.259	95.400898
1005.441	95.435009
1005.623	96.459493
1005.805	97.356256
1005.987	97.388921
1006.169	96.736802
1006.351	95.745227
1006.533	94.611017
1006.715	94.291372
1006.897	94.365756
1007.079	95.276862
1007.261	95.446868
1007.443	95.135692
1007.625	94.712222
1007.806	94.256594
1007.988	93.858860
1008.170	93.768209
1008.352	94.631205
1008.534	95.159689
1008.715	94.584601
1008.897	94.966148
1009.079	95.100360
1009.260	94.922667
1009.442	95.303084
1009.624	95.188415
1009.805	95.082532
1009.987	94.746050
1010.169	94.755895
1010.350	94.512136
1010.532	94.367671
1010.713	95.177701
1010.895	94.778991
1011.076	93.646067
1011.258	93.409705
1011.439	93.122972
1011.621	93.319347
1011.802	94.297137
1011.983	95.010112
1012.165	94.980304
1012.346	94.833458
1012.527	94.118240
1012.709	93.379569
1012.890	93.926273
1013.071	94.760448
1013.253	95.673044
1013.434	95.824179
1013.615	95.538421
1013.796	94.438851
1013.978	94.977116
1014.159	96.082342
1014.340	97.013066
1014.521	97.988504
1014.702	98.163082
1014.883	96.946966
1015.064	96.198732
1015.245	94.950328
1015.427	94.972983
1015.608	94.870237
1015.789	95.222312
1015.970	94.676329
1016.151	94.822949
1016.332	94.838759
1016.512	95.121240
1016.693	95.333981
1016.874	96.139927
1017.055	97.217693
1017.236	98.647118
1017.417	98.462265
1017.598	98.621628
1017.779	98.938973
1017.959	98.794778
1018.140	97.684218
1018.321	97.382980
1018.502	96.969347
1018.682	96.687286
1018.863	95.950593
1019.044	94.812722
1019.224	93.819871
1019.405	94.652123
1019.586	95.114285
1019.766	94.448971
1019.947	95.312502
1020.127	95.882095
1020.308	95.351272
1020.488	94.931586
1020.669	94.845820
1020.849	95.466160
1021.030	96.647658
1021.210	96.917415
1021.391	96.258742
1021.571	95.462643
1021.752	95.279014
1021.932	94.619801
1022.112	95.101163
1022.293	95.813200
1022.473	96.418428
1022.653	97.547622
1022.834	98.644039
1023.014	99.112148
1023.194	99.951896
1023.374	99.479337
1023.555	99.267702
1023.735	99.657810
1023.915	99.382524
1024.095	98.495946
1024.275	98.503518
1024.455	99.441032
1024.635	98.798885
1024.816	97.421285
1024.996	96.636534
1025.176	96.164958
1025.356	97.835691
1025.536	99.162360
1025.716	99.425782
1025.896	99.964714
1026.076	99.682113
1026.256	98.190263
1026.436	97.002781
1026.615	96.884007
1026.795	96.021522
1026.975	94.615195
1027.155	94.365914
1027.335	92.611202
1027.515	92.199075
1027.695	92.348911
1027.874	91.448823
1028.054	91.493766
1028.234	92.539108
1028.413	92.333334
1028.593	92.913318
1028.773	94.554375
1028.953	96.088030
1029.132	95.905502
1029.312	96.954063
1029.491	97.547157
1029.671	97.660796
1029.851	99.407680
1030.030	100.610430
1030.210	100.438531
1030.389	100.081373
1030.569	98.818018
1030.748	98.279526
1030.928	98.019683
1031.107	97.478290
1031.286	97.367215
1031.466	96.513407
1031.645	95.858610
1031.825	95.361877
1032.004	95.201905
1032.183	95.800313
1032.363	96.159089
1032.542	97.206670
1032.721	97.279128
1032.900	96.984729
1033.080	98.396345
1033.259	98.076617
1033.438	98.191698
1033.617	98.760979
1033.796	97.829672
1033.975	97.153985
1034.155	97.560595
1034.334	98.458890
1034.513	98.458830
1034.692	98.307658
1034.871	98.199084
1035.050	98.047233
1035.229	99.295403
1035.408	99.490111
1035.587	99.492062
1035.766	100.484790
1035.945	100.908545
1036.124	99.827483
1036.303	98.859784
1036.481	98.056868
1036.660	98.353793
1036.839	98.995181
1037.018	98.316450
1037.197	97.060151
1037.376	96.651390
1037.554	95.724167
1037.733	95.852793
1037.912	96.783214
1038.091	97.268433
1038.269	97.638970
1038.448	98.438451
1038.627	97.729521
1038.805	98.227310
1038.984	98.631142
1039.162	98.259364
1039.341	98.122180
1039.520	98.666554
1039.698	98.297887
1039.877	97.395437
1040.055	97.326767
1040.234	98.620113
1040.412	98.873385
1040.591	99.128461
1040.769	98.196199
1040.947	99.020011
1041.126	99.821573
1041.304	99.620790
1041.483	99.752895
1041.661	99.609841
1041.839	99.542425
1042.017	98.999837
1042.196	97.580000
1042.374	96.282038
1042.552	96.071948
1042.730	96.305962
1042.909	95.781496
1043.087	95.753180
1043.265	97.489749
1043.443	97.905828
1043.621	97.803936
1043.799	98.458476
1043.978	98.005984
1044.156	98.454795
1044.334	99.206231
1044.512	99.451931
1044.690	99.742765
1044.868	99.623118
1045.046	98.535363
1045.224	96.908609
1045.402	96.186941
1045.580	96.224570
1045.758	95.167106
1045.935	96.148977
1046.113	96.244752
1046.291	96.459038
1046.469	97.422082
1046.647	96.898780
1046.825	96.578062
1047.002	98.054915
1047.180	99.177529
1047.358	99.318666
1047.536	99.313707
1047.713	99.674531
1047.891	99.520559
1048.069	99.371828
1048.246	98.909700
1048.424	98.088613
1048.602	98.042996
1048.779	98.164714
1048.957	98.100954
1049.134	97.821396
1049.312	98.169461
1049.489	98.281175
1049.667	98.719514
1049.844	98.987246
1050.022	98.239055
1050.199	98.681374
1050.377	98.739004
1050.554	99.019026
1050.731	98.680694
1050.909	97.658267
1051.086	97.287917
1051.263	96.552629
1051.441	96.700821
1051.618	96.675713
1051.795	96.503388
1051.973	96.630729
1052.150	96.134161
1052.327	95.951315
1052.504	95.571034
1052.681	94.894724
1052.859	95.218868
1053.036	95.272155
1053.213	95.845886
1053.390	96.289859
1053.567	96.624495
1053.744	96.870001
1053.921	98.167240
1054.098	98.575294
1054.275	98.550725
1054.452	98.637771
1054.629	99.667536
1054.806	100.296929
1054.983	101.000658
1055.160	102.593542
1055.337	103.087357
1055.514	102.115361
1055.691	100.997752
1055.868	99.217985
1056.044	99.036136
1056.221	99.032998
1056.398	98.837051
1056.575	98.488522
1056.751	98.069739
1056.928	97.073044
1057.105	94.995945
1057.282	93.570209
1057.458	92.879886
1057.635	92.809312
1057.812	94.012972
1057.988	93.313055
1058.165	92.838114
1058.341	93.525673
1058.518	93.935181
1058.694	93.945697
1058.871	94.736888
1059.047	95.309123
1059.224	95.570752
1059.401	95.871181
1059.577	96.017328
1059.753	95.697342
1059.930	96.315522
1060.106	97.078003
1060.282	96.927176
1060.459	96.849939
1060.635	96.225940
1060.812	94.703088
1060.988	94.315947
1061.164	94.503518
1061.340	94.767194
1061.517	94.978495
1061.693	94.967972
1061.869	94.738587
1062.045	94.143102
1062.221	93.350527
1062.398	92.309878
1062.574	92.027920
1062.750	92.430414
1062.926	92.154597
1063.102	91.244660
1063.278	91.034347
1063.454	91.199947
1063.630	91.210472
1063.806	91.837239
1063.982	92.210634
1064.158	92.317605
1064.334	93.071311
1064.510	94.277628
1064.686	95.143104
1064.862	95.754768
1065.038	96.172277
1065.214	96.241514
1065.389	95.589295
1065.565	95.397708
1065.741	95.113402
1065.917	95.569817
1066.093	95.810681
1066.268	96.187126
1066.444	95.958546
1066.620	95.493338
1066.795	95.016692
1066.971	95.060225
1067.147	95.218683
1067.322	95.571091
1067.498	95.654860
1067.673	95.451162
1067.849	95.228588
1068.025	95.512921
1068.200	95.701090
1068.376	95.950724
1068.551	96.150078
1068.727	96.294754
1068.902	96.090349
1069.078	95.903553
1069.253	96.225792
1069.428	96.271562
1069.604	96.520893
1069.779	95.879296
1069.954	95.318452
1070.130	94.981109
1070.305	94.344903
1070.480	93.636623
1070.656	93.374440
1070.831	93.764498
1071.006	93.128394
1071.181	93.242681
1071.357	93.756656
1071.532	93.827595
1071.707	94.049127
1071.882	94.239613
1072.057	94.308721
1072.232	94.931223
1072.407	94.632545
1072.582	95.308874
1072.757	95.637361
1072.932	96.974219
1073.107	96.247673
1073.282	95.488122
1073.457	94.766221
1073.632	94.086135
1073.807	93.973600
1073.982	93.118476
1074.157	92.975143
1074.332	94.244356
1074.507	93.878575
1074.682	92.499609
1074.856	91.126808
1075.031	90.788011
1075.206	90.937624
1075.381	90.937644
1075.556	91.816919
1075.730	92.116004
1075.905	92.465076
1076.080	91.484650
1076.254	90.653070
1076.429	90.853257
1076.604	92.029179
1076.778	93.479656
1076.953	95.042904
1077.127	95.626492
1077.302	95.588718
1077.477	94.935128
1077.651	94.576998
1077.826	94.341705
1078.000	94.882654
1078.175	95.150528
1078.349	94.979623
1078.523	94.507936
1078.698	93.829665
1078.872	92.965524
1079.047	92.170925
1079.221	92.912537
1079.395	94.013350
1079.570	94.543517
1079.744	95.215629
1079.918	95.020443
1080.092	95.100534
1080.267	95.377185
1080.441	95.558491
1080.615	95.909168
1080.789	96.367237
1080.963	96.627600
1081.137	95.446983
1081.312	93.792799
1081.486	93.126015
1081.660	92.892301
1081.834	92.610014
1082.008	91.808903
1082.182	91.317257
1082.356	91.420161
1082.530	91.169867
1082.704	90.014376
1082.878	89.888561
1083.052	90.528616
1083.226	91.278265
1083.400	90.927007
1083.573	90.887043
1083.747	91.744189
1083.921	91.841643
1084.095	91.385939
1084.269	91.347439
1084.443	91.365385
1084.616	92.688904
1084.790	92.748751
1084.964	93.134820
1085.138	93.310567
1085.311	93.583763
1085.485	93.191426
1085.659	92.071733
1085.832	91.984816
1086.006	92.274780
1086.179	91.775004
1086.353	91.424529
1086.527	90.776207
1086.700	90.440253
1086.874	89.605918
1087.047	89.510285
1087.221	89.896482
1087.394	89.851401
1087.568	89.967753
1087.741	90.852268
1087.914	90.628363
1088.088	90.711062
1088.261	90.967278
1088.435	90.403209
1088.608	90.703158
1088.781	91.585430
1088.954	92.252150
1089.128	92.164006
1089.301	92.306354
1089.474	92.673157
1089.647	92.485352
1089.821	92.808231
1089.994	93.075709
1090.167	93.216472
1090.340	93.935757
1090.513	93.367537
1090.686	92.088862
1090.859	91.190865
1091.032	90.885274
1091.206	91.177648
1091.379	91.339984
1091.552	91.199044
1091.725	91.169541
1091.898	91.064159
1092.071	90.514716
1092.244	89.984108
1092.416	89.909034
1092.589	90.366099
1092.762	90.276378
1092.935	90.248183
1093.108	89.599931
1093.281	89.406606
1093.453	89.057064
1093.626	89.274005
1093.799	89.608142
1093.972	90.134162
1094.145	90.937880
1094.317	92.063177
1094.490	92.642205
1094.663	92.662116
1094.835	92.795681
1095.008	92.944365
1095.181	92.223531
1095.353	92.497529
1095.526	92.234239
1095.698	91.074466
1095.871	90.718668
1096.043	89.872517
1096.216	89.025058
1096.388	88.563879
1096.561	88.270054
1096.733	87.728276
1096.906	87.835253
1097.078	89.047083
1097.250	89.409213
1097.423	89.312948
1097.595	90.385367
1097.768	90.930180
1097.940	91.172540
1098.112	91.738231
1098.284	92.469627
1098.457	93.394739
1098.629	93.827446
1098.801	93.634816
1098.973	92.849338
1099.146	92.183603
1099.318	92.427885
1099.490	91.816857
1099.662	90.938216
1099.834	90.496475
1100.006	89.627365
1100.178	88.664934
1100.350	88.177534
1100.522	88.420168
1100.694	88.648027
1100.866	88.823935
1101.038	89.276463
1101.210	88.887382
1101.382	88.566758
1101.554	88.176874
1101.726	88.383230
1101.898	88.012690
1102.070	87.672325
1102.241	87.567696
1102.413	87.288176
1102.585	86.833703
1102.757	86.346570
1102.929	85.782017
1103.100	85.170080
1103.272	85.061269
1103.444	85.742339
1103.616	86.070840
1103.787	86.498648
1103.959	87.080038
1104.130	87.598565
1104.302	87.985442
1104.474	88.249738
1104.645	88.203177
1104.817	88.183050
1104.988	89.029223
1105.160	89.946639
1105.331	90.604591
1105.503	90.445297
1105.674	90.889331
1105.846	90.681442
1106.017	89.797121
1106.189	89.663628
1106.360	89.192319
1106.531	89.212959
1106.703	89.521052
1106.874	89.149698
1107.045	88.537402
1107.217	87.591826
1107.388	86.844764
1107.559	85.857454
1107.730	84.936862
1107.902	85.389886
1108.073	85.382062
1108.244	86.303287
1108.415	86.747002
1108.586	86.431020
1108.757	86.135464
1108.929	86.137177
1109.100	86.543016
1109.271	87.336108
1109.442	87.810170
1109.613	88.969715
1109.784	88.763160
1109.955	88.617430
1110.126	88.026346
1110.297	87.691776
1110.468	88.067915
1110.639	88.610197
1110.809	88.403954
1110.980	87.928485
1111.151	87.861869
1111.322	88.433373
1111.493	88.824126
1111.664	88.784235
1111.834	88.707166
1112.005	89.131123
1112.176	89.284708
1112.347	88.715035
1112.517	88.416258
1112.688	88.310742
1112.859	88.226028
1113.029	87.870728
1113.200	87.407224
1113.371	86.958396
1113.541	86.606940
1113.712	86.264957
1113.882	85.884802
1114.053	85.657597
1114.223	85.801927
1114.394	85.690214
1114.564	85.343074
1114.735	85.107803
1114.905	84.964067
1115.076	84.461458
1115.246	84.101479
1115.416	83.783410
1115.587	83.918771
1115.757	83.521074
1115.927	83.713373
1116.098	83.800666
1116.268	83.756703
1116.438	84.724108
1116.609	85.445662
1116.779	85.996978
1116.949	86.350582
1117.119	86.311521
1117.289	86.847873
1117.459	86.913329
1117.630	87.204750
1117.800	87.487049
1117.970	87.283184
1118.140	87.567019
1118.310	86.907397
1118.480	86.330732
1118.650	86.440240
1118.820	86.499056
1118.990	86.378398
1119.160	86.339670
1119.330	86.472076
1119.500	86.764622
1119.670	86.519468
1119.840	86.760542
1120.010	86.281639
1120.179	86.630049
1120.349	87.092268
1120.519	86.167949
1120.689	85.783786
1120.859	86.046101
1121.028	86.588819
1121.198	86.351603
1121.368	85.844643
1121.538	85.796090
1121.707	85.783304
1121.877	86.398282
1122.047	86.785531
1122.216	86.835120
1122.386	87.341356
1122.555	87.794103
1122.725	88.059588
1122.894	87.207995
1123.064	87.014639
1123.233	87.119150
1123.403	86.652026
1123.573	86.403424
1123.742	85.757234
1123.911	85.054583
1124.081	84.551005
1124.250	84.453586
1124.419	84.259678
1124.589	83.774009
1124.758	84.085681
1124.927	84.018432
1125.097	83.840729
1125.266	83.925095
1125.435	83.490747
1125.605	83.647127
1125.774	83.549507
1125.943	83.294029
1126.112	83.581915
1126.281	83.526732
1126.450	83.784837
1126.620	83.733524
1126.789	84.086692
1126.958	84.690803
1127.127	85.197613
1127.296	86.233550
1127.465	86.613120
1127.634	87.095145
1127.803	87.783507
1127.972	86.969690
1128.141	87.049224
1128.310	87.175677
1128.479	87.235320
1128.648	86.931678
1128.817	86.343558
1128.985	85.822402
1129.154	84.802050
1129.323	84.059813
1129.492	83.451418
1129.661	82.545655
1129.829	82.513137
1129.998	82.273486
1130.167	81.778092
1130.336	81.473022
1130.504	81.832682
1130.673	82.241747
1130.842	82.478389
1131.010	82.800701
1131.179	82.676698
1131.347	82.296761
1131.516	81.721314
1131.685	81.407455
1131.853	81.036449
1132.022	80.953878
1132.190	81.245156
1132.359	81.084337
1132.527	80.681816
1132.696	80.364591
1132.864	80.512506
1133.032	80.747099
1133.201	81.001194
1133.369	81.554270
1133.537	81.794771
1133.706	82.144714
1133.874	82.294268
1134.042	81.786655
1134.211	81.154056
1134.379	80.961858
1134.547	80.959586
1134.715	80.591410
1134.884	80.818006
1135.052	80.608278
1135.220	80.905435
1135.388	81.543150
1135.556	81.566019
1135.724	82.102976
1135.892	83.037445
1136.060	83.798037
1136.228	84.156154
1136.396	84.510916
1136.564	84.770771
1136.732	84.591681
1136.900	84.403923
1137.068	84.312732
1137.236	83.390023
1137.404	83.054739
1137.572	82.689048
1137.740	82.342377
1137.908	82.063154
1138.076	82.058090
1138.243	82.295012
1138.411	82.125204
1138.579	81.650558
1138.747	81.991699
1138.914	82.144569
1139.082	82.846097
1139.250	83.628901
1139.417	83.988171
1139.585	83.898686
1139.753	83.849000
1139.920	84.007733
1140.088	83.034667
1140.256	82.609492
1140.423	83.312766
1140.591	83.694076
1140.758	83.580697
1140.926	82.994539
1141.093	82.685246
1141.261	82.200453
1141.428	81.677571
1141.596	81.524198
1141.763	80.810968
1141.930	81.291349
1142.098	81.742268
1142.265	81.576885
1142.432	81.464802
1142.600	81.788066
1142.767	82.199049
1142.934	81.960467
1143.102	81.620595
1143.269	81.501435
1143.436	81.779567
1143.603	82.054526
1143.771	81.816594
1143.938	82.005964
1144.105	82.123518
1144.272	81.968838
1144.439	81.556853
1144.606	81.432793
1144.773	81.903742
1144.940	81.920281
1145.107	82.465982
1145.274	82.483032
1145.441	82.232730
1145.608	82.404440
1145.775	82.304288
1145.942	81.964009
1146.109	82.037840
1146.276	82.335794
1146.443	82.725627
1146.610	82.353340
1146.776	82.904792
1146.943	82.738772
1147.110	82.071678
1147.277	82.389828
1147.444	82.500601
1147.610	82.496313
1147.777	82.413510
1147.944	82.591082
1148.110	82.542542
1148.277	82.248254
1148.444	82.097590
1148.610	82.093417
1148.777	81.977514
1148.944	82.644894
1149.110	82.885765
1149.277	82.680300
1149.443	82.471199
1149.610	82.546346
1149.776	82.547980
1149.943	82.959413
1150.109	82.914976
1150.276	83.077810
1150.442	82.793807
1150.608	82.996852
1150.775	82.770685
1150.941	82.689437
1151.107	82.588824
1151.274	82.564482
1151.440	82.598031
1151.606	82.519177
1151.773	81.376150
1151.939	81.536637
1152.105	81.641234
1152.271	81.771675
1152.438	81.396130
1152.604	81.318353
1152.770	81.437678
1152.936	81.879374
1153.102	82.583414
1153.268	82.794508
1153.434	82.640361
1153.600	82.906111
1153.766	82.541090
1153.932	82.155336
1154.098	81.955532
1154.264	82.097306
1154.430	82.183483
1154.596	81.803433
1154.762	81.553168
1154.928	80.757472
1155.094	80.932992
1155.260	80.778666
1155.426	81.215118
1155.591	81.516997
1155.757	81.860572
1155.923	81.517367
1156.089	81.196937
1156.255	81.076999
1156.420	81.189544
1156.586	81.193492
1156.752	81.459696
1156.917	81.416561
1157.083	81.680201
1157.249	81.954787
1157.414	82.018302
1157.580	81.752777
1157.745	81.776707
1157.911	82.222701
1158.076	82.008255
1158.242	81.878727
1158.407	81.770297
1158.573	81.763548
1158.738	81.900628
1158.904	82.005597
1159.069	81.634515
1159.235	81.832816
1159.400	81.998039
1159.565	82.002594
1159.731	82.489778
1159.896	83.166101
1160.061	83.508582
1160.227	84.022731
1160.392	84.052662
1160.557	83.783621
1160.722	83.219815
1160.888	83.358558
1161.053	83.528109
1161.218	83.591926
1161.383	83.948647
1161.548	83.586017
1161.713	83.056108
1161.878	82.744469
1162.043	82.317019
1162.208	81.619176
1162.374	81.363251
1162.539	81.929806
1162.704	81.905131
1162.869	81.342253
1163.033	81.073673
1163.198	81.083707
1163.363	80.845993
1163.528	80.799330
1163.693	81.243458
1163.858	81.850106
1164.023	82.973303
1164.188	83.523973
1164.353	83.388319
1164.517	83.193157
1164.682	83.348888
1164.847	83.783227
1165.011	84.080077
1165.176	84.349230
1165.341	84.592500
1165.506	83.994141
1165.670	83.076023
1165.835	82.663983
1166.000	82.381022
1166.164	82.284421
1166.329	82.172404
1166.493	82.175472
1166.658	82.364445
1166.822	82.750944
1166.987	82.764887
1167.151	82.828310
1167.316	83.195898
1167.480	83.413680
1167.645	83.108206
1167.809	82.461265
1167.973	82.260709
1168.138	82.607027
1168.302	82.468723
1168.466	81.640894
1168.631	80.802103
1168.795	80.666868
1168.959	80.521863
1169.124	80.406676
1169.288	80.640054
1169.452	80.825442
1169.616	81.529981
1169.780	82.043009
1169.944	81.604350
1170.109	82.032963
1170.273	82.680500
1170.437	82.583540
1170.601	82.279579
1170.765	82.506816
1170.929	82.222105
1171.093	81.632668
1171.257	81.632294
1171.421	81.283254
1171.585	81.181724
1171.749	81.458084
1171.913	81.103404
1172.077	81.233288
1172.240	81.709074
1172.404	82.320348
1172.568	82.377560
1172.732	83.008508
1172.896	83.999755
1173.060	84.693860
1173.223	85.174326
1173.387	84.752122
1173.551	84.700107
1173.715	84.927144
1173.878	84.713352
1174.042	84.465752
1174.206	84.277496
1174.369	84.612947
1174.533	84.252818
1174.696	83.652758
1174.860	83.109271
1175.023	82.530582
1175.187	82.379103
1175.351	82.016785
1175.514	82.065217
1175.677	82.373143
1175.841	81.779466
1176.004	81.138424
1176.168	80.111046
1176.331	80.113017
1176.495	80.310909
1176.658	80.198065
1176.821	80.848370
1176.985	81.842690
1177.148	83.166810
1177.311	83.343346
1177.474	82.849705
1177.638	83.594795
1177.801	84.293098
1177.964	84.867403
1178.127	84.625552
1178.291	84.342856
1178.454	84.153444
1178.617	83.482837
1178.780	82.728230
1178.943	82.221086
1179.106	81.693992
1179.269	81.597585
1179.432	81.500127
1179.595	81.232741
1179.758	80.883044
1179.921	80.658474
1180.084	80.634568
1180.247	80.975286
1180.410	81.693271
1180.573	82.148374
1180.736	81.599001
1180.899	81.634413
1181.061	81.900759
1181.224	82.056641
1181.387	81.874703
1181.550	81.900785
1181.713	82.261359
1181.875	81.772495
1182.038	81.531825
1182.201	81.296473
1182.363	81.052497
1182.526	81.157735
1182.689	81.223643
1182.851	81.056393
1183.014	80.750788
1183.177	80.796865
1183.339	80.992671
1183.502	81.185449
1183.664	81.739238
1183.827	82.152465
1183.989	81.920759
1184.152	82.165026
1184.314	82.081596
1184.477	81.812043
1184.639	82.005283
1184.801	82.282001
1184.964	82.359204
1185.126	81.936668
1185.288	81.634624
1185.451	81.504132
1185.613	81.581807
1185.775	81.654981
1185.938	81.327522
1186.100	81.320914
1186.262	81.739215
1186.424	81.806376
1186.586	82.327346
1186.749	82.914886
1186.911	83.596705
1187.073	83.204933
1187.235	82.924191
1187.397	82.299915
1187.559	82.493292
1187.721	82.876934
1187.883	83.331458
1188.045	83.318925
1188.207	83.254632
1188.369	82.515871
1188.531	81.987479
1188.693	81.871534
1188.855	82.487223
1189.017	83.025377
1189.179	82.816423
1189.341	82.337060
1189.502	82.173570
1189.664	82.219605
1189.826	82.119894
1189.988	81.840136
1190.150	81.825753
1190.311	81.594061
1190.473	81.465349
1190.635	81.226532
1190.796	80.943028
1190.958	81.144304
1191.120	81.060771
1191.281	80.603186
1191.443	80.570920
1191.604	81.097481
1191.766	81.311981
1191.928	81.635715
1192.089	82.737841
1192.251	83.372105
1192.412	84.030820
1192.574	84.244750
1192.735	84.205362
1192.896	84.523225
1193.058	84.925736
1193.219	84.832408
1193.381	84.268841
1193.542	84.079172
1193.703	84.032105
1193.865	83.329086
1194.026	82.767993
1194.187	82.223030
1194.349	82.407472
1194.510	83.068038
1194.671	82.972668
1194.832	83.028605
1194.993	82.739096
1195.155	82.448646
1195.316	82.547954
1195.477	82.890561
1195.638	83.020577
1195.799	83.433622
1195.960	83.753590
1196.121	83.968054
1196.282	84.204611
1196.443	84.715854
1196.604	84.560970
1196.765	84.651763
1196.926	85.123244
1197.087	85.739753
1197.248	85.964975
1197.409	86.032770
1197.570	86.011815
1197.730	86.486052
1197.891	86.268088
1198.052	86.126397
1198.213	86.322303
1198.374	86.533731
1198.534	86.310757
1198.695	86.025105
1198.856	85.460788
1199.016	84.919224
1199.177	85.013364
1199.338	85.056522
1199.498	85.016790
1199.659	85.667336
1199.820	85.557691
1199.980	84.523819
1200.141	84.073961
1200.301	84.677442
1200.462	84.932017
1200.622	84.891950
1200.783	85.241166
1200.943	85.315660
1201.104	84.768611
1201.264	84.007703
1201.424	83.208645
1201.585	82.817090
1201.745	83.095723
1201.906	83.321654
1202.066	83.048858
1202.226	82.458342
1202.386	82.471611
1202.547	81.977102
1202.707	81.439614
1202.867	82.146928
1203.027	82.797312
1203.188	82.912087
1203.348	82.871149
1203.508	83.255911
1203.668	83.694950
1203.828	84.008772
1203.988	84.718853
1204.148	85.214744
1204.308	85.354132
1204.468	85.641000
1204.628	85.326226
1204.788	84.992982
1204.948	84.981995
1205.108	84.867670
1205.268	85.103191
1205.428	85.005004
1205.588	84.526740
1205.748	84.513357
1205.908	84.440724
1206.068	84.586510
1206.228	84.114686
1206.387	83.297648
1206.547	83.124098
1206.707	82.902899
1206.867	83.167421
1207.026	82.861291
1207.186	82.582605
1207.346	82.917318
1207.505	82.499244
1207.665	81.749244
1207.825	81.568812
1207.984	81.999697
1208.144	82.489995
1208.303	82.431509
1208.463	82.621793
1208.622	82.596086
1208.782	82.722023
1208.941	82.956750
1209.101	82.856700
1209.260	83.330915
1209.420	83.458377
1209.579	83.086193
1209.739	82.835137
1209.898	82.557930
1210.057	82.537385
1210.217	82.545894
1210.376	82.746167
1210.535	82.598771
1210.694	82.837895
1210.854	83.239017
1211.013	83.161193
1211.172	83.331924
1211.331	83.717499
1211.490	83.862426
1211.650	84.929293
1211.809	85.702375
1211.968	86.039566
1212.127	86.402123
1212.286	86.299625
1212.445	85.662502
1212.604	85.025669
1212.763	84.928896
1212.922	85.865711
1213.081	86.176821
1213.240	86.462108
1213.399	86.283379
1213.558	86.010976
1213.717	85.934132
1213.876	86.007428
1214.035	86.372196
1214.194	86.655145
1214.352	87.038324
1214.511	87.817264
1214.670	87.485270
1214.829	87.079012
1214.988	87.045503
1215.146	87.020108
1215.305	87.289185
1215.464	87.178414
1215.622	86.829864
1215.781	86.958541
1215.940	87.005408
1216.098	86.593234
1216.257	85.997877
1216.415	85.550249
1216.574	85.892153
1216.732	85.789005
1216.891	85.443468
1217.049	84.462502
1217.208	84.187248
1217.366	83.827996
1217.525	83.583413
1217.683	83.827332
1217.842	84.341828
1218.000	83.901997
1218.158	83.442050
1218.317	83.097577
1218.475	83.155975
1218.633	82.782078
1218.792	82.865215
1218.950	82.987278
1219.108	83.084474
1219.266	83.186434
1219.425	83.499723
1219.583	83.752936
1219.741	84.370268
1219.899	85.202920
1220.057	85.713828
1220.215	85.550272
1220.373	86.194515
1220.531	86.942537
1220.689	86.979363
1220.847	86.798515
1221.005	86.117594
1221.163	85.344100
1221.322	84.946055
1221.479	84.559026
1221.637	83.927802
1221.795	82.783985
1221.953	82.517359
1222.111	82.161012
1222.269	81.929950
1222.427	82.163746
1222.584	82.603616
1222.742	83.124891
1222.900	82.834878
1223.058	82.427389
1223.216	82.828092
1223.373	83.431197
1223.531	84.526120
1223.689	84.964724
1223.846	84.809772
1224.004	84.771278
1224.162	84.389332
1224.319	84.104020
1224.477	83.841946
1224.634	84.081802
1224.792	83.980315
1224.949	83.233640
1225.107	82.042909
1225.264	81.545961
1225.422	81.451069
1225.579	81.447510
1225.737	81.267441
1225.894	81.466228
1226.052	81.085157
1226.209	80.954323
1226.366	81.279396
1226.523	81.413345
1226.681	81.935549
1226.838	83.489962
1226.995	84.078618
1227.153	83.704904
1227.310	83.507135
1227.467	83.678339
1227.624	83.718686
1227.781	83.975245
1227.938	84.329026
1228.096	84.662205
1228.253	85.827754
1228.410	86.140124
1228.567	85.734039
1228.724	85.540750
1228.881	85.650680
1229.038	85.622452
1229.195	85.538164
1229.352	85.800082
1229.509	86.041439
1229.666	85.964919
1229.823	85.647944
1229.980	85.140968
1230.136	84.970642
1230.293	84.541199
1230.450	84.197328
1230.607	84.550263
1230.764	84.605438
1230.921	84.501340
1231.077	84.072757
1231.234	84.093038
1231.391	84.400965
1231.547	84.430908
1231.704	83.700062
1231.861	83.293688
1232.018	83.593650
1232.174	83.753633
1232.331	84.025256
1232.487	84.475146
1232.644	84.293509
1232.800	84.687869
1232.957	84.277034
1233.113	83.942698
1233.270	83.881766
1233.426	84.762738
1233.583	85.469915
1233.739	85.164931
1233.896	84.926093
1234.052	84.379127
1234.208	84.263374
1234.365	84.559090
1234.521	84.557923
1234.677	85.386679
1234.834	86.076033
1234.990	86.937672
1235.146	86.402528
1235.302	85.980669
1235.459	86.092135
1235.615	86.612582
1235.771	86.574052
1235.927	86.191902
1236.083	86.611268
1236.239	87.130252
1236.396	87.283456
1236.552	86.626282
1236.708	85.016910
1236.864	85.164377
1237.020	85.021177
1237.176	84.419137
1237.332	83.993260
1237.488	83.752219
1237.644	84.020285
1237.799	83.833113
1237.955	83.215524
1238.111	82.413495
1238.267	82.301443
1238.423	82.219809
1238.579	81.637185
1238.734	81.874913
1238.890	83.179903
1239.046	83.121035
1239.202	83.348781
1239.357	83.201113
1239.513	83.079099
1239.669	82.767197
1239.824	83.306801
1239.980	84.114357
1240.136	84.632255
1240.291	85.293439
1240.447	85.344967
1240.603	85.075088
1240.758	85.118887
1240.914	85.237929
1241.069	85.687204
1241.225	85.560782
1241.380	85.514262
1241.535	85.590348
1241.691	85.268605
1241.846	85.587387
1242.002	85.750134
1242.157	85.465295
1242.313	84.564555
1242.468	85.011480
1242.623	85.905533
1242.778	85.865415
1242.934	85.367481
1243.089	85.250434
1243.244	84.665180
1243.399	83.786651
1243.554	83.404220
1243.710	82.729661
1243.865	82.982827
1244.020	83.359075
1244.175	83.152208
1244.330	82.042932
1244.485	81.513917
1244.640	81.641311
1244.795	82.299289
1244.950	83.114209
1245.105	83.762777
1245.260	83.752619
1245.415	84.251972
1245.570	84.289783
1245.725	84.630295
1245.880	84.114426
1246.035	84.147722
1246.190	84.319602
1246.345	84.972883
1246.499	84.370697
1246.654	83.219594
1246.809	82.716568
1246.964	83.388283
1247.118	82.654351
1247.273	81.928970
1247.428	81.423715
1247.583	81.682604
1247.737	81.968479
1247.892	81.998901
1248.047	81.853452
1248.201	82.542809
1248.356	83.823875
1248.510	84.358156
1248.665	83.799012
1248.819	84.233939
1248.974	85.308666
1249.128	86.490098
1249.283	86.516318
1249.437	86.877223
1249.592	87.413792
1249.746	87.550027
1249.900	87.111317
1250.055	86.404027
1250.209	86.790623
1250.363	86.672978
1250.518	86.269642
1250.672	85.188170
1250.826	83.900078
1250.981	83.735391
1251.135	83.151289
1251.289	82.282822
1251.443	81.754424
1251.597	81.704005
1251.751	81.487640
1251.906	80.550597
1252.060	80.565912
1252.214	81.218578
1252.368	81.394697
1252.522	81.472340
1252.676	81.467941
1252.830	82.000697
1252.984	82.976429
1253.138	83.591686
1253.292	83.782774
1253.446	84.111938
1253.600	84.890569
1253.754	85.705978
1253.907	85.455966
1254.061	86.254585
1254.215	87.117108
1254.369	87.374554
1254.523	86.997347
1254.677	86.475907
1254.830	86.679205
1254.984	86.568720
1255.138	85.872204
1255.292	85.292872
1255.445	84.577629
1255.599	84.343308
1255.752	83.357930
1255.906	82.927446
1256.060	82.936968
1256.213	83.408750
1256.367	83.956799
1256.520	83.624724
1256.674	83.762374
1256.827	84.616577
1256.981	84.843151
1257.134	85.223856
1257.288	85.464619
1257.441	85.400856
1257.594	84.762304
1257.748	84.380765
1257.901	84.057150
1258.055	83.760661
1258.208	83.773957
1258.361	83.301359
1258.515	82.898777
1258.668	83.235432
1258.821	83.209503
1258.974	82.402134
1259.127	82.936858
1259.281	83.878480
1259.434	84.898602
1259.587	84.976905
1259.740	85.129511
1259.893	85.261472
1260.046	85.232726
1260.199	85.058105
1260.352	84.713584
1260.505	84.691644
1260.658	85.590115
1260.811	86.154891
1260.964	86.184574
1261.117	86.074646
1261.270	85.326763
1261.423	84.396353
1261.576	84.173088
1261.729	84.667934
1261.882	85.289090
1262.035	85.240862
1262.188	85.079421
1262.340	85.896575
1262.493	86.345380
1262.646	86.491283
1262.798	86.455174
1262.951	87.168665
1263.104	88.067709
1263.257	86.898497
1263.409	86.390722
1263.562	85.108128
1263.714	85.026434
1263.867	84.247740
1264.020	83.195077
1264.172	82.351178
1264.325	81.682905
1264.477	81.274388
1264.630	80.918628
1264.782	80.766465
1264.935	82.311141
1265.087	82.280959
1265.240	82.336206
1265.392	81.640358
1265.544	81.946356
1265.697	82.118768
1265.849	81.565082
1266.001	81.289671
1266.154	80.957793
1266.306	81.354105
1266.458	80.877488
1266.610	80.625875
1266.762	80.958688
1266.915	82.017997
1267.067	83.166802
1267.219	83.690005
1267.371	83.122945
1267.523	83.962771
1267.675	85.083816
1267.828	85.408370
1267.979	85.382800
1268.132	85.835091
1268.284	85.861662
1268.436	85.970490
1268.588	86.080622
1268.740	86.571586
1268.891	86.354635
1269.043	87.342875
1269.195	86.817198
1269.347	87.349418
1269.499	88.963159
1269.651	90.635927
1269.803	92.086363
1269.955	93.356728
1270.106	94.561432
1270.258	93.626384
1270.410	92.045610
1270.562	91.465562
1270.713	91.076923
1270.865	91.284624
1271.017	89.886817
1271.168	87.018765
1271.320	85.058423
1271.471	83.670297
1271.623	82.523303
1271.775	81.299610
1271.926	81.367889
1272.078	82.095569
1272.229	83.012932
1272.381	83.609158
1272.532	84.393399
1272.684	84.897157
1272.835	87.282551
1272.986	87.846500
1273.138	88.774569
1273.289	89.136010
1273.440	88.941515
1273.592	89.489145
1273.743	89.483008
1273.894	89.545350
1274.046	89.816452
1274.197	89.566997
1274.348	89.580377
1274.500	88.633308
1274.651	88.705071
1274.802	87.833504
>>>>>>>>>> END of Data <<<<<<<<<<
