Date	2025年07月03日木曜日 09時56分05秒
Spectrometers	SR401765
ダーク	使用
リファレンス	使用
積分時間[msec]	300
平均回数	1
ｽﾑｰｼﾞﾝｸﾞ	5
Electrical Dark	USE
ピクセル数	3648
計測モード	反射率
保存開始波長[nm]	598.495
保存終了波長[nm]	1274.802
保存ﾋﾟｯﾁ波長[nm]	全波長

>>>>>>>>>> Data Start <<<<<<<<<<<<
598.495	27485.525188
598.713	27485.525188
598.931	27485.525188
599.148	27485.525188
599.366	0.000000
599.584	0.000000
599.802	174.416001
600.020	65.152132
600.238	174.507578
600.455	212.537034
600.673	167.889514
600.891	59.931293
601.109	59.211487
601.326	59.699024
601.544	58.582009
601.762	58.052329
601.979	58.283959
602.197	58.812037
602.415	59.133902
602.632	58.946574
602.850	59.050060
603.067	59.258169
603.285	59.633253
603.502	59.770122
603.720	59.643502
603.938	59.856747
604.155	60.119218
604.372	60.105144
604.590	60.043411
604.807	60.033222
605.025	60.168460
605.242	60.158037
605.460	60.052024
605.677	59.828968
605.894	59.885169
606.112	60.086119
606.329	60.307565
606.546	60.711237
606.764	61.089845
606.981	61.294475
607.198	61.414816
607.415	61.746032
607.633	62.196525
607.850	62.576154
608.067	63.048498
608.284	63.347412
608.501	63.488201
608.718	63.710758
608.935	63.715876
609.153	63.678485
609.370	63.623728
609.587	63.653129
609.804	63.857241
610.021	63.975362
610.238	64.063492
610.455	64.071160
610.672	63.988228
610.889	64.104783
611.106	64.285813
611.323	64.195513
611.540	64.301883
611.756	64.565854
611.973	64.608869
612.190	64.393494
612.407	64.262180
612.624	64.245270
612.841	64.295852
613.057	64.686053
613.274	65.002236
613.491	65.348992
613.708	66.077935
613.925	66.440720
614.141	66.605983
614.358	67.087505
614.575	67.612287
614.791	68.019648
615.008	68.393561
615.225	68.636109
615.441	68.463652
615.658	68.361765
615.874	68.328180
616.091	68.238616
616.307	68.369571
616.524	68.567802
616.740	68.554819
616.957	68.541946
617.173	68.491960
617.390	68.518001
617.606	68.611902
617.823	69.072882
618.039	69.627744
618.256	69.845642
618.472	70.033332
618.688	70.163800
618.905	70.185274
619.121	70.517331
619.337	70.889320
619.554	71.221616
619.770	71.265819
619.986	71.233035
620.202	71.071195
620.419	70.828394
620.635	70.657764
620.851	70.327686
621.067	70.268144
621.283	70.511892
621.499	70.415769
621.716	69.971802
621.932	69.797032
622.148	69.940128
622.364	70.095254
622.580	70.115002
622.796	70.046268
623.012	70.201867
623.228	70.723068
623.444	71.032088
623.660	71.084326
623.876	71.161022
624.092	71.444170
624.308	71.658998
624.524	71.652289
624.740	71.594512
624.955	71.634826
625.171	71.714428
625.387	71.448653
625.603	71.078803
625.819	71.037411
626.034	71.145829
626.250	71.113158
626.466	71.169348
626.682	71.169164
626.897	71.282323
627.113	71.504640
627.329	71.695364
627.544	71.853979
627.760	72.087081
627.976	72.249642
628.191	72.223764
628.407	72.337558
628.623	72.881159
628.838	73.354510
629.054	73.634423
629.269	73.913772
629.485	74.259508
629.700	74.739432
629.916	75.337188
630.131	75.838207
630.347	76.191047
630.562	76.473188
630.777	76.456136
630.993	76.220654
631.208	76.015264
631.424	75.952983
631.639	75.935352
631.854	75.847738
632.070	75.711584
632.285	75.543016
632.500	75.455013
632.715	75.360052
632.931	75.349599
633.146	75.476215
633.361	75.578681
633.576	75.857683
633.791	75.969686
634.007	75.929593
634.222	76.020293
634.437	76.203798
634.652	76.415346
634.867	76.719254
635.082	77.245047
635.297	77.792365
635.512	78.109161
635.727	78.328593
635.942	78.344752
636.157	78.552314
636.372	78.766922
636.587	78.614918
636.802	78.297999
637.017	78.055965
637.232	77.937945
637.447	77.928856
637.662	77.918380
637.876	77.889156
638.091	77.682142
638.306	77.364952
638.521	77.144066
638.736	77.099581
638.951	77.224236
639.165	77.258649
639.380	77.149486
639.595	76.949046
639.809	76.637736
640.024	76.527462
640.239	76.832814
640.453	77.145074
640.668	77.341038
640.883	77.283020
641.097	77.272546
641.312	77.395570
641.526	77.438422
641.741	77.495118
641.955	77.508547
642.170	77.425290
642.384	77.307564
642.599	77.039529
642.813	77.128690
643.028	77.684388
643.242	78.294089
643.457	78.657530
643.671	78.775793
643.885	78.897717
644.100	78.919602
644.314	79.016220
644.528	79.154924
644.743	79.120795
644.957	79.256739
645.171	79.402709
645.386	79.160406
645.600	78.975436
645.814	78.905303
646.028	79.127819
646.242	79.433838
646.457	79.515232
646.671	79.404186
646.885	79.432451
647.099	79.656709
647.313	79.781489
647.527	79.660043
647.741	79.730734
647.955	79.931511
648.169	80.287477
648.383	80.497275
648.597	80.632488
648.811	80.864112
649.025	81.186237
649.239	81.450830
649.453	81.471432
649.667	81.412667
649.881	81.659624
650.095	81.636081
650.309	81.361779
650.523	81.070529
650.737	80.933878
650.950	80.974235
651.164	81.318227
651.378	81.763050
651.592	81.924278
651.805	81.884411
652.019	81.865073
652.233	81.873402
652.447	82.000517
652.660	82.177403
652.874	82.253057
653.088	82.207219
653.301	82.112648
653.515	81.964364
653.728	81.720729
653.942	81.575985
654.156	81.525354
654.369	81.325346
654.583	80.926115
654.796	80.824077
655.010	80.843672
655.223	80.884815
655.437	80.826201
655.650	80.872632
655.863	80.684183
656.077	80.539063
656.290	80.674565
656.504	80.877904
656.717	81.087104
656.930	81.305786
657.144	81.219686
657.357	81.209922
657.570	81.259020
657.783	81.415030
657.997	81.598690
658.210	81.784943
658.423	81.665232
658.636	81.407715
658.849	81.126648
659.063	80.917558
659.276	80.987725
659.489	81.146524
659.702	81.257095
659.915	81.127924
660.128	80.727380
660.341	80.387420
660.554	80.338216
660.767	80.725872
660.980	81.244575
661.193	81.593824
661.406	81.866269
661.619	82.046392
661.832	82.234777
662.045	82.280670
662.258	82.402352
662.471	82.631271
662.684	82.723363
662.897	82.559863
663.110	81.956256
663.322	81.196758
663.535	80.745585
663.748	80.587876
663.961	80.482270
664.174	80.236789
664.386	80.046466
664.599	80.095427
664.812	80.286549
665.024	80.284392
665.237	80.554312
665.450	81.110865
665.662	81.623318
665.875	82.127834
666.088	82.541594
666.300	82.553542
666.513	82.621878
666.725	82.886710
666.938	83.013671
667.150	83.126430
667.363	83.453524
667.575	83.491500
667.788	83.520336
668.000	83.854201
668.213	84.058418
668.425	83.956896
668.638	83.923256
668.850	84.002537
669.062	84.174900
669.275	84.487132
669.487	84.724371
669.699	84.949452
669.912	85.255435
670.124	85.300173
670.336	84.962067
670.548	84.960110
670.761	85.186338
670.973	85.465604
671.185	85.747252
671.397	85.489305
671.609	85.085175
671.822	84.684727
672.034	84.300706
672.246	83.994468
672.458	83.896695
672.670	84.045364
672.882	84.010753
673.094	83.837186
673.306	83.680828
673.518	83.569374
673.730	83.724195
673.942	83.699803
674.154	83.571760
674.366	83.574951
674.578	83.649997
674.790	83.744850
675.002	83.933108
675.214	83.959416
675.425	83.733320
675.637	83.557550
675.849	83.329912
676.061	82.947677
676.273	82.732790
676.484	82.834800
676.696	83.007956
676.908	83.336001
677.120	83.707794
677.331	83.586428
677.543	83.138985
677.755	82.857287
677.966	82.775471
678.178	82.653896
678.389	82.760517
678.601	83.045498
678.813	83.297598
679.024	83.247527
679.236	82.841680
679.447	82.312888
679.659	81.910685
679.870	81.778606
680.082	81.795850
680.293	81.452620
680.505	81.339732
680.716	81.382367
680.927	81.136190
681.139	80.683346
681.350	80.403722
681.562	80.505851
681.773	80.786458
681.984	80.983525
682.196	81.296819
682.407	81.677445
682.618	82.028626
682.829	82.066548
683.041	82.059292
683.252	82.315011
683.463	82.743174
683.674	83.088168
683.885	83.130829
684.097	82.807239
684.308	82.673400
684.519	82.348385
684.730	81.880376
684.941	81.710090
685.152	81.800882
685.363	81.784146
685.574	81.498345
685.785	81.180448
685.996	80.850950
686.207	80.457782
686.418	80.298098
686.629	80.218027
686.840	80.511660
687.051	80.940267
687.262	81.172097
687.473	81.168300
687.684	81.118520
687.894	81.360459
688.105	81.822070
688.316	82.182282
688.527	82.502767
688.738	82.593265
688.948	82.437406
689.159	82.018039
689.370	81.462146
689.580	81.124875
689.791	81.037249
690.002	80.977533
690.212	80.920383
690.423	80.603763
690.634	80.345047
690.844	80.275215
691.055	80.517880
691.266	80.964428
691.476	81.359000
691.687	81.897172
691.897	82.356860
692.108	82.497090
692.318	82.659085
692.529	82.632517
692.739	82.602393
692.949	82.613973
693.160	82.559961
693.370	82.598901
693.581	82.811097
693.791	83.093837
694.001	83.203024
694.212	83.188416
694.422	83.155701
694.632	82.847029
694.843	82.446200
695.053	82.380787
695.263	82.344179
695.473	82.099475
695.683	81.715181
695.894	81.233995
696.104	80.903474
696.314	80.614749
696.524	80.607562
696.734	80.856841
696.944	81.194252
697.154	81.509900
697.365	81.556013
697.575	81.441538
697.785	81.462908
697.995	81.286247
698.205	80.985702
698.415	80.724563
698.625	80.655226
698.834	80.418154
699.044	79.893135
699.254	79.606693
699.464	79.446132
699.674	79.109443
699.884	78.771143
700.094	78.498848
700.304	78.338816
700.513	78.351662
700.723	78.375240
700.933	78.326087
701.143	78.270622
701.353	78.474383
701.562	78.478413
701.772	78.479795
701.982	78.938512
702.191	79.441612
702.401	79.814413
702.611	80.152384
702.820	80.287957
703.030	80.314596
703.239	80.401512
703.449	80.516873
703.659	80.652855
703.868	80.796156
704.078	80.639032
704.287	79.983328
704.497	79.448334
704.706	79.066024
704.916	78.669801
705.125	78.321792
705.334	77.940075
705.544	77.508286
705.753	77.242179
705.962	76.970347
706.172	76.610576
706.381	76.501982
706.590	76.666035
706.800	76.836681
707.009	77.117863
707.218	77.703871
707.428	78.235324
707.637	78.516127
707.846	78.650105
708.055	78.852765
708.264	79.259382
708.474	79.793915
708.683	80.133307
708.892	80.117629
709.101	80.101400
709.310	80.037885
709.519	79.566772
709.728	79.045975
709.937	78.732059
710.146	78.559141
710.355	78.226886
710.564	77.521883
710.773	76.920886
710.982	76.581720
711.191	76.336852
711.400	76.211733
711.609	76.164975
711.818	76.258384
712.027	76.403580
712.235	76.523132
712.444	76.513094
712.653	76.204166
712.862	75.787405
713.071	75.393662
713.279	75.139341
713.488	75.196050
713.697	75.040602
713.906	74.747523
714.114	74.461482
714.323	74.114477
714.532	73.767928
714.740	73.459898
714.949	73.465169
715.157	73.809348
715.366	74.070504
715.575	74.139323
715.783	74.056083
715.992	73.899658
716.200	73.621050
716.409	73.351327
716.617	73.058272
716.826	72.719864
717.034	72.611406
717.242	72.471131
717.451	72.051847
717.659	71.737707
717.868	71.603528
718.076	71.617120
718.284	71.868543
718.493	72.148555
718.701	72.371574
718.909	72.734272
719.118	73.133016
719.326	73.209380
719.534	73.255140
719.742	73.425379
719.951	73.516720
720.159	73.289041
720.367	72.788885
720.575	72.309169
720.783	72.148816
720.991	72.157980
721.199	72.050539
721.408	71.684526
721.616	71.266578
721.824	70.855324
722.032	70.622738
722.240	70.379525
722.448	70.466704
722.656	70.728642
722.864	70.724246
723.072	70.272424
723.280	69.706348
723.487	69.457990
723.695	69.556905
723.903	69.850620
724.111	70.182537
724.319	70.405962
724.527	70.658247
724.735	70.874885
724.942	70.963041
725.150	70.890147
725.358	70.904918
725.566	70.962649
725.773	70.756710
725.981	70.437391
726.189	70.136309
726.396	69.797502
726.604	69.343670
726.812	68.823764
727.019	68.161161
727.227	67.482631
727.435	67.219558
727.642	67.069441
727.850	66.584187
728.057	65.945032
728.265	65.184084
728.472	64.363868
728.680	63.640384
728.887	63.158695
729.095	62.817419
729.302	62.489171
729.509	62.203858
729.717	61.909615
729.924	61.669006
730.132	61.781691
730.339	61.970162
730.546	62.138032
730.753	62.476038
730.961	62.774798
731.168	62.804560
731.375	62.615446
731.583	62.380191
731.790	62.218843
731.997	62.105299
732.204	61.975427
732.411	61.790094
732.618	61.633111
732.826	61.822249
733.033	61.897356
733.240	61.765327
733.447	61.519994
733.654	61.387235
733.861	61.247310
734.068	60.986226
734.275	60.784116
734.482	60.603881
734.689	60.283703
734.896	59.943278
735.103	59.469414
735.310	59.088128
735.517	58.790071
735.724	58.666673
735.931	58.499159
736.137	58.364960
736.344	58.267380
736.551	57.952787
736.758	57.525884
736.965	57.155524
737.171	56.786626
737.378	56.388453
737.585	55.819930
737.792	55.291715
737.998	54.940432
738.205	54.783702
738.412	54.701960
738.618	54.521342
738.825	54.319196
739.032	54.402187
739.238	54.374463
739.445	54.351380
739.651	54.168512
739.858	54.119226
740.064	54.076800
740.271	53.880977
740.477	53.397131
740.684	52.784494
740.890	52.287118
741.097	51.754250
741.303	51.066976
741.510	50.589999
741.716	50.211523
741.922	49.851092
742.129	49.588350
742.335	49.363485
742.541	49.007321
742.748	48.675247
742.954	48.370486
743.160	48.058943
743.366	47.711746
743.573	47.180831
743.779	46.729518
743.985	46.263517
744.191	46.072288
744.397	45.696513
744.604	45.178006
744.810	44.817285
745.016	44.408501
745.222	43.935660
745.428	43.406863
745.634	43.019142
745.840	42.695062
746.046	42.139273
746.252	41.615027
746.458	41.019981
746.664	40.602091
746.870	40.394021
747.076	40.177976
747.282	40.110955
747.488	40.036674
747.694	39.891116
747.900	39.747341
748.105	39.671016
748.311	39.779642
748.517	39.909286
748.723	39.809132
748.929	39.414572
749.134	38.955604
749.340	38.505448
749.546	38.107563
749.752	37.829568
749.957	37.568446
750.163	37.195234
750.369	36.698763
750.574	36.180104
750.780	35.660221
750.985	35.277668
751.191	35.023253
751.397	34.748323
751.602	34.431789
751.808	34.045919
752.013	33.576481
752.219	33.128285
752.424	32.649838
752.630	32.402409
752.835	32.014693
753.041	31.551249
753.246	31.124124
753.451	30.700660
753.657	30.239638
753.862	29.707152
754.067	29.103595
754.273	28.457998
754.478	27.988202
754.683	27.696306
754.889	27.275248
755.094	26.992384
755.299	26.653286
755.504	26.308117
755.710	26.056265
755.915	25.792870
756.120	25.384061
756.325	24.923728
756.530	24.565531
756.735	24.177521
756.940	23.757261
757.146	23.341736
757.351	22.883316
757.556	22.547999
757.761	22.216825
757.966	21.720776
758.171	21.229788
758.376	20.936820
758.581	20.751358
758.786	20.566369
758.990	20.425485
759.195	20.227118
759.400	19.974224
759.605	19.798109
759.810	19.544120
760.015	19.275348
760.220	19.157847
760.424	19.046614
760.629	18.880131
760.834	18.730915
761.039	18.579653
761.244	18.304753
761.448	18.035212
761.653	17.816006
761.858	17.572821
762.062	17.376112
762.267	17.262658
762.472	17.013305
762.676	16.705161
762.881	16.459299
763.085	16.296066
763.290	16.131977
763.494	16.012487
763.699	15.902351
763.903	15.683860
764.108	15.548328
764.312	15.431646
764.517	15.274348
764.721	15.255292
764.926	15.305973
765.130	15.254717
765.335	15.054952
765.539	14.937005
765.743	14.839871
765.948	14.806837
766.152	14.893553
766.356	14.853502
766.560	14.759587
766.765	14.642712
766.969	14.448673
767.173	14.251555
767.377	14.169039
767.582	14.225978
767.786	14.257591
767.990	14.267711
768.194	14.147690
768.398	14.005760
768.602	13.964127
768.806	13.940851
769.010	14.018159
769.215	14.102851
769.419	14.124510
769.623	14.237889
769.827	14.274232
770.031	14.293215
770.234	14.176516
770.438	14.174071
770.642	14.365412
770.846	14.478934
771.050	14.688966
771.254	14.817024
771.458	14.851341
771.662	14.872960
771.866	14.916469
772.069	15.024023
772.273	15.038280
772.477	15.154761
772.681	15.264914
772.885	15.176365
773.088	15.076342
773.292	15.022198
773.496	15.093402
773.699	15.271427
773.903	15.465980
774.107	15.603986
774.310	15.641777
774.514	15.714660
774.717	15.872101
774.921	15.974462
775.124	16.199861
775.328	16.456749
775.531	16.612863
775.735	16.597527
775.938	16.662416
776.142	16.817937
776.345	16.835630
776.549	17.014835
776.752	17.272150
776.956	17.443013
777.159	17.596861
777.362	17.754947
777.566	17.934554
777.769	18.220019
777.972	18.571688
778.176	18.836448
778.379	19.130702
778.582	19.513097
778.785	19.739729
778.989	20.047591
779.192	20.386528
779.395	20.813060
779.598	21.298042
779.801	21.638797
780.004	21.727017
780.207	21.875367
780.411	22.112925
780.614	22.215185
780.817	22.307205
781.020	22.463296
781.223	22.534940
781.426	22.656764
781.629	22.774047
781.832	22.806271
782.035	23.056408
782.238	23.396666
782.440	23.647752
782.643	23.896991
782.846	24.249196
783.049	24.697499
783.252	25.114215
783.455	25.561299
783.658	25.880296
783.860	26.141051
784.063	26.473349
784.266	26.736620
784.469	27.079270
784.671	27.492806
784.874	27.746725
785.077	27.905079
785.279	28.098772
785.482	28.409880
785.685	28.664932
785.887	28.826250
786.090	29.028464
786.293	29.331938
786.495	29.575363
786.698	29.762868
786.900	29.909782
787.103	30.115184
787.305	30.377031
787.508	30.577115
787.710	30.777431
787.913	31.004628
788.115	31.330600
788.317	31.476912
788.520	31.365433
788.722	31.318241
788.924	31.349111
789.127	31.440926
789.329	31.555309
789.531	31.751621
789.734	31.956271
789.936	32.026292
790.138	32.065938
790.340	32.359145
790.543	32.939045
790.745	33.528846
790.947	34.012682
791.149	34.331527
791.351	34.749987
791.553	35.354458
791.756	35.911109
791.958	36.408972
792.160	36.836333
792.362	37.086602
792.564	37.316834
792.766	37.573486
792.968	38.027623
793.170	38.491508
793.372	38.965104
793.574	39.127837
793.776	39.020165
793.978	38.800807
794.180	38.615215
794.381	38.713553
794.583	39.074115
794.785	39.274334
794.987	39.210702
795.189	39.044056
795.391	38.958759
795.592	39.145881
795.794	39.645462
795.996	40.244168
796.198	40.845164
796.399	41.411681
796.601	41.749330
796.803	41.953061
797.004	42.165052
797.206	42.474379
797.407	42.825052
797.609	43.164475
797.811	43.410361
798.012	43.451502
798.214	43.312685
798.415	43.282648
798.617	43.262632
798.818	43.434721
799.020	43.741202
799.221	43.961218
799.423	44.278191
799.624	44.571023
799.826	45.004556
800.027	45.351115
800.228	45.611713
800.430	46.029012
800.631	46.423763
800.832	46.759408
801.034	46.841127
801.235	46.826644
801.436	46.895955
801.637	46.907811
801.839	46.970673
802.040	46.916728
802.241	46.768591
802.442	46.746774
802.643	46.810645
802.844	46.840524
803.046	46.770135
803.247	46.724030
803.448	46.730732
803.649	46.797110
803.850	47.056607
804.051	47.268882
804.252	47.324899
804.453	47.338694
804.654	47.420014
804.855	47.573315
805.056	47.823660
805.257	48.132545
805.458	48.522307
805.659	49.037161
805.859	49.589947
806.060	50.027761
806.261	50.700917
806.462	51.559628
806.663	52.215752
806.864	52.770160
807.064	53.109932
807.265	53.434551
807.466	53.942378
807.667	54.437034
807.867	54.702016
808.068	54.977145
808.269	55.025404
808.469	54.749326
808.670	54.416240
808.870	54.358468
809.071	54.352801
809.272	54.695030
809.472	55.183767
809.673	55.793663
809.873	56.316866
810.074	56.769231
810.274	56.966324
810.475	57.344255
810.675	57.672368
810.876	57.815141
811.076	58.104362
811.276	58.197654
811.477	57.848554
811.677	57.214051
811.878	56.436163
812.078	56.113260
812.278	56.028787
812.479	56.152314
812.679	56.143325
812.879	56.220819
813.079	56.480065
813.280	56.429534
813.480	56.490632
813.680	56.837637
813.880	57.225389
814.080	57.411114
814.280	57.289072
814.480	56.994285
814.681	56.581973
814.881	56.316809
815.081	55.985060
815.281	55.596087
815.481	55.607286
815.681	55.724458
815.881	55.670566
816.081	55.537385
816.281	55.630186
816.481	56.026244
816.681	56.622339
816.880	57.281608
817.080	57.892359
817.280	58.335660
817.480	58.681802
817.680	58.927686
817.880	59.188019
818.080	59.452645
818.279	59.739270
818.479	59.905285
818.679	59.884279
818.879	59.983041
819.078	60.211926
819.278	60.194207
819.478	60.359984
819.677	60.873946
819.877	61.327801
820.077	61.502376
820.276	61.707240
820.476	62.224021
820.675	63.031672
820.875	63.514667
821.074	63.668057
821.274	63.751492
821.473	64.118495
821.673	64.470657
821.872	64.425116
822.072	64.310344
822.271	64.418912
822.471	64.534675
822.670	64.186046
822.869	63.430132
823.069	62.707824
823.268	62.165407
823.467	61.808264
823.667	61.523485
823.866	61.421927
824.065	61.779985
824.265	62.431870
824.464	63.197639
824.663	63.724342
824.862	64.455056
825.061	65.432599
825.261	66.348045
825.460	67.148680
825.659	67.660466
825.858	67.873118
826.057	68.016089
826.256	67.924275
826.455	67.530272
826.654	67.045291
826.853	67.004411
827.052	67.234114
827.251	67.311199
827.450	67.622149
827.649	67.947461
827.848	67.894111
828.047	67.864157
828.246	67.879801
828.445	67.987871
828.644	68.197127
828.843	68.285266
829.041	68.084067
829.240	67.473144
829.439	67.024281
829.638	66.808008
829.836	66.674048
830.035	66.983703
830.234	67.211702
830.433	67.210360
830.631	67.062316
830.830	66.989121
831.029	67.224885
831.227	67.446996
831.426	67.847847
831.624	67.936928
831.823	67.662382
832.022	67.126186
832.220	66.430547
832.419	66.049684
832.617	65.905648
832.816	65.832220
833.014	65.709373
833.213	65.412457
833.411	65.151591
833.609	64.894979
833.808	64.913008
834.006	65.004913
834.205	65.367578
834.403	65.928377
834.601	66.404415
834.800	66.564992
834.998	66.766153
835.196	66.933945
835.394	67.055704
835.593	67.352400
835.791	67.612002
835.989	67.800771
836.187	68.261622
836.385	68.584263
836.584	68.679809
836.782	68.870094
836.980	69.338384
837.178	69.616808
837.376	69.857925
837.574	70.108064
837.772	70.381763
837.970	70.647614
838.168	70.946203
838.366	71.063639
838.564	71.072309
838.762	70.913423
838.960	70.538754
839.158	70.284634
839.356	70.263137
839.554	70.261762
839.752	70.225373
839.949	70.218527
840.147	70.365253
840.345	70.730775
840.543	71.111142
840.741	71.663839
840.938	72.443149
841.136	73.258774
841.334	73.860945
841.532	74.367995
841.729	74.964786
841.927	75.584109
842.125	75.713147
842.322	75.429357
842.520	74.664733
842.718	73.988666
842.915	73.495180
843.113	72.998359
843.310	72.620281
843.508	72.364140
843.705	72.021139
843.903	71.610516
844.100	71.245058
844.298	71.361946
844.495	71.912460
844.693	72.365057
844.890	72.381890
845.087	72.288806
845.285	72.168320
845.482	72.035880
845.679	72.140782
845.877	72.368607
846.074	72.372972
846.271	72.263389
846.469	71.999583
846.666	71.485418
846.863	70.981382
847.060	70.715963
847.257	70.567258
847.455	70.728150
847.652	71.225868
847.849	71.441943
848.046	71.329764
848.243	71.464424
848.440	71.762322
848.637	71.845888
848.834	71.942322
849.031	72.104808
849.228	72.270274
849.425	72.447454
849.622	72.562773
849.819	72.518350
850.016	72.273407
850.213	72.099998
850.410	71.880765
850.607	71.670584
850.804	71.520359
851.001	71.497716
851.198	71.870722
851.394	72.562001
851.591	72.913660
851.788	73.134420
851.985	73.255551
852.181	73.386507
852.378	73.619397
852.575	74.005012
852.772	74.378918
852.968	74.766639
853.165	75.011689
853.362	75.010587
853.558	75.021288
853.755	75.239632
853.951	75.245113
854.148	75.175845
854.345	75.609783
854.541	76.471690
854.738	76.868901
854.934	77.017866
855.131	77.361303
855.327	77.812149
855.523	78.319950
855.720	78.770097
855.916	79.078585
856.113	79.459036
856.309	79.754500
856.505	79.739379
856.702	79.350950
856.898	79.038487
857.094	78.787868
857.291	78.490467
857.487	78.077076
857.683	77.431563
857.879	76.783916
858.076	76.409854
858.272	76.267994
858.468	76.210395
858.664	76.310853
858.860	76.139197
859.056	75.938976
859.253	76.062663
859.449	76.021301
859.645	76.112375
859.841	76.705706
860.037	77.595834
860.233	78.499057
860.429	79.161784
860.625	79.393743
860.821	79.216990
861.017	79.001530
861.213	79.101480
861.409	79.382974
861.604	79.910003
861.800	80.471612
861.996	80.575287
862.192	79.909709
862.388	79.072306
862.584	78.191904
862.779	77.745026
862.975	77.748541
863.171	77.981831
863.367	77.999853
863.562	77.699813
863.758	77.171741
863.954	76.557432
864.149	76.442654
864.345	76.773507
864.541	77.219402
864.736	77.584029
864.932	77.588284
865.127	77.000105
865.323	76.428904
865.518	76.324815
865.714	76.304983
865.910	76.488327
866.105	76.541224
866.300	76.451022
866.496	76.088145
866.691	75.566504
866.887	75.421103
867.082	75.510564
867.277	75.996321
867.473	76.493495
867.668	76.665346
867.864	76.602467
868.059	76.386053
868.254	76.339179
868.449	76.271877
868.645	76.128645
868.840	75.783456
869.035	75.551058
869.230	75.391577
869.425	75.110713
869.621	75.287948
869.816	75.588095
870.011	75.880673
870.206	76.084339
870.401	76.260979
870.596	76.256595
870.791	76.209079
870.986	76.385933
871.181	76.161648
871.376	75.821434
871.571	75.841564
871.766	75.454056
871.961	74.680662
872.156	73.938571
872.351	73.434433
872.546	72.951489
872.741	72.783546
872.936	72.943332
873.130	73.041373
873.325	73.176390
873.520	73.482451
873.715	74.059146
873.910	75.017103
874.104	76.109834
874.299	77.174018
874.494	77.802009
874.688	78.325094
874.883	78.663731
875.078	78.732411
875.272	78.654541
875.467	78.244773
875.662	77.591473
875.856	76.595283
876.051	75.449856
876.245	74.640152
876.440	73.948182
876.634	73.791135
876.829	73.593370
877.023	73.245890
877.218	73.114900
877.412	73.133817
877.607	73.516174
877.801	74.229257
877.995	74.790017
878.190	75.261796
878.384	75.431547
878.578	75.564232
878.773	75.496625
878.967	75.738485
879.161	76.239414
879.356	76.515970
879.550	77.519235
879.744	78.934520
879.938	79.965768
880.133	81.152583
880.327	81.870707
880.521	82.248755
880.715	82.585309
880.909	82.998540
881.103	83.346282
881.297	83.315114
881.491	83.371552
881.685	82.492492
881.880	81.159386
882.073	80.336882
882.267	79.905667
882.461	79.750001
882.655	79.980759
882.849	80.290196
883.043	80.335548
883.237	80.068833
883.431	80.062102
883.625	80.183741
883.819	80.781317
884.013	81.823482
884.206	82.329201
884.400	82.454090
884.594	82.480274
884.788	82.503081
884.982	82.231577
885.175	81.973999
885.369	81.665886
885.563	81.608961
885.756	81.338538
885.950	80.888748
886.144	80.148628
886.337	79.768989
886.531	79.221707
886.724	78.807590
886.918	78.669874
887.112	78.811537
887.305	78.687631
887.499	78.823285
887.692	78.736928
887.885	78.998679
888.079	79.175061
888.272	79.314147
888.466	79.441139
888.659	80.112581
888.853	81.217782
889.046	82.140797
889.239	82.964872
889.433	83.486693
889.626	83.976291
889.819	83.964883
890.013	83.860793
890.206	84.147203
890.399	84.331930
890.592	84.363700
890.785	83.793409
890.979	82.823888
891.172	81.914544
891.365	80.971389
891.558	80.606929
891.751	80.236929
891.944	80.253895
892.137	80.169893
892.330	79.772238
892.524	79.245670
892.717	79.005249
892.910	78.713104
893.103	78.723942
893.296	78.818736
893.488	79.111008
893.681	79.591926
893.874	79.969523
894.067	80.214942
894.260	80.243551
894.453	79.937139
894.646	80.316940
894.839	80.877825
895.031	81.786820
895.224	82.352199
895.417	83.203899
895.610	84.085797
895.802	84.543568
895.995	84.794136
896.188	85.131256
896.381	85.498500
896.573	85.875240
896.766	85.711468
896.958	85.091217
897.151	84.622604
897.344	84.461345
897.536	84.051842
897.729	83.426869
897.921	82.710292
898.114	82.245630
898.306	82.012888
898.499	81.987852
898.691	82.322204
898.884	82.780158
899.076	83.420389
899.269	83.406165
899.461	83.071503
899.653	82.617649
899.846	82.292915
900.038	82.497503
900.230	82.835445
900.423	82.883890
900.615	82.609131
900.807	82.273579
901.000	81.929404
901.192	81.313908
901.384	80.897843
901.576	80.823284
901.768	80.738600
901.961	80.522302
902.153	80.433698
902.345	80.443164
902.537	80.618306
902.729	81.154256
902.921	81.572395
903.113	81.600152
903.305	81.669890
903.497	82.088588
903.689	82.473539
903.881	82.623845
904.073	82.611580
904.265	82.236920
904.457	81.581851
904.649	81.062196
904.841	80.534949
905.033	80.364086
905.224	80.847438
905.416	81.880480
905.608	82.388159
905.800	82.522007
905.992	82.710051
906.183	83.445763
906.375	84.253629
906.567	85.243825
906.759	85.767709
906.950	85.723895
907.142	85.733750
907.334	85.789018
907.525	85.699600
907.717	85.882551
907.909	85.971768
908.100	86.072655
908.292	86.014993
908.483	85.828989
908.675	85.741809
908.866	85.738436
909.058	86.118518
909.249	86.125022
909.441	85.364927
909.632	84.183452
909.824	83.275806
910.015	82.903769
910.206	82.700292
910.398	82.411284
910.589	82.268417
910.780	81.870986
910.972	81.881743
911.163	81.903053
911.354	82.261629
911.546	83.076534
911.737	83.799960
911.928	84.466468
912.119	84.450006
912.310	84.458078
912.502	84.120150
912.693	83.431419
912.884	83.105295
913.075	82.877216
913.266	82.936966
913.457	82.889842
913.648	83.036986
913.839	83.321791
914.030	83.842127
914.221	84.391829
914.412	84.710007
914.603	85.758439
914.794	87.278007
914.985	88.374468
915.176	88.884041
915.367	88.902413
915.558	88.396831
915.749	87.435603
915.940	86.580823
916.130	85.485908
916.321	85.035931
916.512	84.324110
916.703	83.323629
916.893	81.997684
917.084	80.326311
917.275	78.645766
917.466	77.359717
917.656	76.821780
917.847	76.430991
918.038	75.939070
918.228	75.473949
918.419	75.201909
918.609	75.470357
918.800	75.770246
918.990	76.534728
919.181	77.814308
919.372	79.429029
919.562	80.693972
919.753	81.453262
919.943	82.277618
920.133	83.288692
920.324	84.088747
920.514	83.983784
920.705	83.776078
920.895	83.812212
921.085	83.374906
921.276	83.221607
921.466	83.096576
921.656	82.698902
921.847	82.220476
922.037	82.135591
922.227	82.248011
922.417	82.014366
922.608	82.307947
922.798	82.492927
922.988	82.208978
923.178	82.165939
923.368	82.001805
923.558	81.903999
923.748	82.646181
923.939	83.474077
924.129	83.968016
924.319	83.801969
924.509	83.690252
924.699	83.617286
924.889	82.949179
925.079	82.354184
925.269	82.060975
925.459	81.838718
925.648	81.270041
925.838	80.563977
926.028	79.999355
926.218	79.725327
926.408	79.785187
926.598	79.958795
926.788	80.296113
926.977	81.190820
927.167	82.076460
927.357	82.785565
927.547	83.520828
927.736	84.395348
927.926	85.030176
928.116	85.274821
928.305	85.632785
928.495	85.688611
928.685	85.783906
928.874	85.778665
929.064	85.809728
929.253	85.588449
929.443	85.507961
929.633	85.491143
929.822	85.399269
930.012	85.484638
930.201	85.511348
930.391	84.986147
930.580	84.998763
930.769	85.230152
930.959	85.229994
931.148	85.365950
931.338	85.570147
931.527	85.546852
931.716	85.112410
931.906	84.458475
932.095	83.710576
932.284	83.692153
932.474	83.530165
932.663	82.797456
932.852	82.296265
933.041	81.851663
933.230	81.553115
933.420	81.725986
933.609	81.761189
933.798	81.793492
933.987	82.064274
934.176	82.383571
934.365	82.611729
934.554	83.421117
934.743	84.233012
934.932	84.689882
935.121	84.582502
935.310	84.036056
935.499	83.072732
935.688	82.396770
935.877	81.803726
936.066	81.456172
936.255	81.257381
936.444	80.777075
936.633	80.144584
936.822	80.041077
937.010	79.666403
937.199	79.838282
937.388	80.284939
937.577	80.802741
937.766	81.510363
937.954	82.403223
938.143	83.226680
938.332	84.063403
938.520	85.189302
938.709	85.493431
938.898	85.370429
939.086	85.651173
939.275	85.937473
939.464	85.885558
939.652	85.824880
939.841	85.489232
940.029	85.381723
940.218	85.376328
940.406	84.656172
940.595	84.111893
940.783	84.041952
940.972	84.033499
941.160	84.387975
941.349	85.367377
941.537	86.617865
941.725	87.378492
941.914	88.581547
942.102	89.427272
942.290	89.819747
942.479	90.474676
942.667	90.785093
942.855	90.671277
943.043	90.735142
943.232	90.287864
943.420	89.082006
943.608	88.076632
943.796	87.777733
943.984	87.272418
944.172	86.495152
944.361	85.899313
944.549	85.818152
944.737	85.752312
944.925	86.355139
945.113	86.923039
945.301	87.701631
945.489	88.329625
945.677	88.446343
945.865	88.792260
946.053	88.814814
946.241	89.015814
946.429	89.452503
946.617	89.362418
946.805	89.403037
946.992	89.273603
947.180	89.101853
947.368	89.103179
947.556	89.515464
947.744	90.436477
947.931	90.937170
948.119	90.905612
948.307	90.458188
948.495	90.042665
948.682	89.998468
948.870	89.744271
949.058	89.667497
949.245	89.420554
949.433	88.417856
949.621	87.557710
949.808	86.824076
949.996	86.086163
950.183	86.041019
950.371	86.687355
950.558	86.721902
950.746	86.025263
950.933	85.348071
951.121	84.877043
951.308	84.266011
951.496	83.736619
951.683	82.814988
951.870	81.770708
952.058	81.084594
952.245	80.166067
952.433	79.232140
952.620	78.589635
952.807	78.136277
952.994	78.146702
953.182	78.281759
953.369	78.970379
953.556	79.972171
953.743	81.205453
953.931	82.335413
954.118	83.485176
954.305	84.684590
954.492	85.309147
954.679	85.546892
954.866	86.255066
955.053	86.757958
955.240	86.873341
955.427	86.966497
955.615	87.022667
955.802	86.433145
955.989	86.350371
956.175	85.628034
956.362	85.028107
956.549	85.063646
956.736	85.807684
956.923	86.448546
957.110	87.112848
957.297	87.156451
957.484	87.518068
957.671	87.896686
957.857	88.385710
958.044	88.246774
958.231	88.225320
958.418	88.277578
958.604	88.213258
958.791	87.880131
958.978	87.477493
959.165	86.292436
959.351	85.287359
959.538	84.592787
959.724	84.034172
959.911	84.001535
960.098	83.712424
960.284	83.989266
960.471	83.951639
960.657	83.865582
960.844	84.260387
961.030	83.888162
961.217	83.693837
961.403	84.417813
961.590	84.415163
961.776	84.974642
961.963	85.391430
962.149	85.658819
962.335	85.944621
962.522	86.029297
962.708	85.712688
962.894	85.027826
963.081	85.544125
963.267	86.562294
963.453	87.089052
963.639	87.276718
963.826	86.667136
964.012	86.257377
964.198	86.524277
964.384	86.158670
964.570	85.930738
964.756	85.991567
964.943	86.083243
965.129	85.993097
965.315	84.876414
965.501	83.410380
965.687	82.887126
965.873	82.931591
966.059	83.122496
966.245	83.035583
966.431	83.389650
966.617	83.837729
966.803	84.570027
966.989	84.677365
967.174	84.757023
967.360	85.573348
967.546	86.371494
967.732	86.590189
967.918	86.832622
968.104	86.856739
968.289	86.356801
968.475	85.532626
968.661	85.308813
968.847	84.528858
969.032	84.377294
969.218	83.815988
969.404	83.331959
969.589	83.954427
969.775	84.490811
969.961	84.026591
970.146	83.802315
970.332	84.503541
970.517	85.264063
970.703	85.242728
970.888	85.711181
971.074	86.603895
971.260	87.705066
971.445	88.632957
971.630	88.237467
971.816	87.039450
972.001	87.298853
972.187	88.101537
972.372	87.776309
972.557	87.886342
972.743	88.224664
972.928	87.977102
973.113	87.199036
973.299	86.732621
973.484	86.595635
973.669	86.743415
973.854	88.026189
974.040	88.669330
974.225	88.455167
974.410	88.644065
974.595	87.988163
974.780	87.551517
974.965	87.335254
975.151	87.426416
975.336	87.108607
975.521	87.221693
975.706	87.200957
975.891	86.794104
976.076	86.381682
976.261	86.156380
976.446	86.164122
976.631	87.029999
976.816	87.882942
977.001	88.796287
977.186	89.506776
977.370	89.508419
977.555	89.258575
977.740	89.253617
977.925	89.463267
978.110	89.281317
978.295	88.845832
978.479	88.573159
978.664	87.810129
978.849	86.963698
979.034	86.070149
979.218	84.827631
979.403	84.544534
979.588	83.683947
979.772	83.143270
979.957	82.725407
980.141	82.496842
980.326	82.057017
980.511	82.030486
980.695	82.243426
980.880	82.191118
981.064	82.249474
981.249	83.078395
981.433	83.309908
981.618	84.299181
981.802	85.073470
981.987	85.505874
982.171	86.334263
982.355	87.561432
982.540	88.008049
982.724	88.767562
982.908	89.766710
983.093	91.007692
983.277	91.103617
983.461	92.255809
983.646	93.209810
983.830	93.768540
984.014	94.021303
984.198	93.359879
984.382	92.764415
984.567	92.929988
984.751	92.840594
984.935	93.273857
985.119	93.413249
985.303	93.388615
985.487	93.006193
985.671	91.886001
985.855	91.539903
986.039	91.377600
986.223	91.719462
986.407	92.330137
986.591	91.939512
986.775	91.882187
986.959	91.614851
987.143	91.134897
987.327	90.625651
987.511	89.526660
987.695	89.252948
987.879	88.557141
988.062	88.196519
988.246	88.078201
988.430	87.588589
988.614	88.252119
988.797	87.977371
988.981	87.994282
989.165	88.336580
989.349	89.719446
989.532	90.887262
989.716	91.793597
989.900	93.014900
990.083	93.518783
990.267	93.298510
990.450	93.578232
990.634	92.551686
990.817	91.882337
991.001	91.471027
991.184	91.085050
991.368	90.044256
991.551	89.971040
991.735	89.951762
991.918	88.748614
992.102	88.689990
992.285	88.599446
992.469	88.157454
992.652	88.660108
992.835	89.472678
993.019	89.484901
993.202	89.240029
993.385	89.329233
993.568	89.883856
993.752	89.687927
993.935	89.835077
994.118	89.788225
994.301	90.444618
994.484	90.956686
994.668	91.153007
994.851	90.759699
995.034	90.490729
995.217	90.401639
995.400	90.402658
995.583	88.933540
995.766	89.090929
995.949	89.586336
996.132	89.077976
996.315	88.859620
996.498	88.669589
996.681	88.414878
996.864	88.669493
997.047	88.992772
997.230	89.239147
997.413	88.816000
997.596	88.945625
997.778	88.243807
997.961	88.340426
998.144	89.189110
998.327	88.763031
998.510	88.392339
998.692	87.922553
998.875	88.083668
999.058	87.947453
999.241	87.909441
999.423	88.584028
999.606	88.962245
999.789	89.039663
999.971	88.700000
1000.154	88.268055
1000.336	88.355460
1000.519	87.947715
1000.701	88.284835
1000.884	88.292584
1001.067	88.342914
1001.249	87.810667
1001.431	87.258237
1001.614	87.259499
1001.796	87.758589
1001.979	87.255829
1002.161	86.916391
1002.344	86.948308
1002.526	87.020841
1002.708	86.984888
1002.891	86.205024
1003.073	86.389976
1003.255	86.954795
1003.438	87.541277
1003.620	87.879026
1003.802	87.781131
1003.984	88.683906
1004.166	89.563348
1004.349	90.012312
1004.531	91.240263
1004.713	92.410388
1004.895	93.451901
1005.077	93.039396
1005.259	92.860793
1005.441	92.390016
1005.623	92.404433
1005.805	92.300504
1005.987	91.709659
1006.169	90.789880
1006.351	91.005856
1006.533	90.769139
1006.715	89.979802
1006.897	89.620622
1007.079	90.329748
1007.261	90.318198
1007.443	90.302727
1007.625	90.239060
1007.806	90.491745
1007.988	90.934773
1008.170	90.966324
1008.352	91.267747
1008.534	91.431965
1008.715	91.131161
1008.897	91.646119
1009.079	91.840926
1009.260	92.049122
1009.442	92.046759
1009.624	91.949906
1009.805	92.139206
1009.987	91.667985
1010.169	92.003951
1010.350	92.341858
1010.532	92.266918
1010.713	93.001772
1010.895	92.690440
1011.076	91.556208
1011.258	91.774413
1011.439	92.315446
1011.621	92.744676
1011.802	92.964864
1011.983	92.955483
1012.165	92.071049
1012.346	90.876887
1012.527	91.322650
1012.709	90.923589
1012.890	91.295962
1013.071	92.680906
1013.253	92.694818
1013.434	92.433827
1013.615	92.119010
1013.796	91.347398
1013.978	92.096064
1014.159	93.726634
1014.340	95.245639
1014.521	94.935292
1014.702	95.391279
1014.883	94.701634
1015.064	92.751896
1015.245	92.592336
1015.427	92.946246
1015.608	93.011103
1015.789	93.698180
1015.970	93.553304
1016.151	94.451843
1016.332	94.122029
1016.512	94.544638
1016.693	95.096328
1016.874	96.485375
1017.055	98.455524
1017.236	98.881152
1017.417	98.464096
1017.598	98.564056
1017.779	98.934180
1017.959	97.937750
1018.140	95.640790
1018.321	95.490308
1018.502	95.583949
1018.682	95.035237
1018.863	93.366586
1019.044	92.809589
1019.224	92.909019
1019.405	93.961615
1019.586	94.596671
1019.766	94.242294
1019.947	95.143963
1020.127	96.209025
1020.308	95.054934
1020.488	93.972793
1020.669	93.940789
1020.849	94.570641
1021.030	94.911273
1021.210	94.493012
1021.391	92.839173
1021.571	91.729637
1021.752	91.631229
1021.932	92.156690
1022.112	92.298815
1022.293	93.906758
1022.473	94.822362
1022.653	95.423566
1022.834	96.064416
1023.014	95.692156
1023.194	96.189236
1023.374	96.974055
1023.555	97.826335
1023.735	97.885958
1023.915	97.918408
1024.095	98.315825
1024.275	98.243758
1024.455	98.640515
1024.635	97.342453
1024.816	96.262169
1024.996	96.431360
1025.176	96.067308
1025.356	96.401488
1025.536	95.101187
1025.716	94.524920
1025.896	93.947805
1026.076	93.594029
1026.256	92.515266
1026.436	91.161428
1026.615	92.092706
1026.795	92.482773
1026.975	91.264153
1027.155	91.258005
1027.335	90.011310
1027.515	90.219797
1027.695	90.763860
1027.874	90.961716
1028.054	90.868109
1028.234	90.865563
1028.413	90.487463
1028.593	90.135469
1028.773	89.958940
1028.953	90.387793
1029.132	89.899271
1029.312	90.664887
1029.491	92.218781
1029.671	92.110267
1029.851	93.151626
1030.030	93.524214
1030.210	93.573891
1030.389	94.608215
1030.569	93.925213
1030.748	94.382425
1030.928	95.389693
1031.107	95.620305
1031.286	96.359241
1031.466	95.753791
1031.645	95.852673
1031.825	95.435678
1032.004	95.910092
1032.183	97.221756
1032.363	97.003374
1032.542	98.244538
1032.721	98.117679
1032.900	97.677398
1033.080	97.662034
1033.259	96.787146
1033.438	97.026230
1033.617	96.584661
1033.796	95.256321
1033.975	93.978436
1034.155	92.580505
1034.334	92.681865
1034.513	91.763480
1034.692	91.501519
1034.871	92.108857
1035.050	93.040181
1035.229	94.252256
1035.408	93.920155
1035.587	94.303806
1035.766	94.290307
1035.945	93.582710
1036.124	93.735405
1036.303	93.624191
1036.481	93.639961
1036.660	94.262800
1036.839	93.965220
1037.018	94.509585
1037.197	94.770836
1037.376	94.750552
1037.554	95.075587
1037.733	95.406393
1037.912	95.860149
1038.091	96.039250
1038.269	96.767678
1038.448	96.792034
1038.627	96.169302
1038.805	96.405389
1038.984	95.724608
1039.162	94.241757
1039.341	93.773231
1039.520	93.539837
1039.698	93.819504
1039.877	94.142206
1040.055	94.130908
1040.234	94.470224
1040.412	95.474972
1040.591	94.973464
1040.769	94.093332
1040.947	93.396616
1041.126	92.652568
1041.304	92.005572
1041.483	91.204643
1041.661	91.271324
1041.839	91.066899
1042.017	89.814648
1042.196	88.610584
1042.374	88.061790
1042.552	88.199933
1042.730	88.327604
1042.909	89.051972
1043.087	89.648124
1043.265	90.178864
1043.443	89.873113
1043.621	89.690637
1043.799	89.610573
1043.978	89.675661
1044.156	89.700319
1044.334	88.630629
1044.512	88.438018
1044.690	88.087595
1044.868	87.614735
1045.046	87.440829
1045.224	87.204633
1045.402	87.737865
1045.580	86.881484
1045.758	86.353867
1045.935	87.314028
1046.113	87.544798
1046.291	88.322588
1046.469	89.083727
1046.647	89.439375
1046.825	89.573857
1047.002	90.509445
1047.180	91.133047
1047.358	91.334464
1047.536	92.249194
1047.713	93.358150
1047.891	93.621435
1048.069	93.723852
1048.246	93.327728
1048.424	92.974005
1048.602	92.561311
1048.779	92.084848
1048.957	91.708654
1049.134	91.318540
1049.312	91.352167
1049.489	91.358126
1049.667	91.292282
1049.844	91.046505
1050.022	90.823879
1050.199	92.224878
1050.377	92.709075
1050.554	93.716835
1050.731	93.787803
1050.909	93.382138
1051.086	93.520412
1051.263	92.841027
1051.441	93.037873
1051.618	93.114061
1051.795	93.961714
1051.973	94.059852
1052.150	92.878505
1052.327	92.146003
1052.504	91.506883
1052.681	90.790366
1052.859	91.212830
1053.036	91.658029
1053.213	93.040258
1053.390	93.415110
1053.567	93.806002
1053.744	93.242517
1053.921	93.600749
1054.098	93.832133
1054.275	94.361163
1054.452	94.292942
1054.629	94.812598
1054.806	94.703596
1054.983	94.152927
1055.160	93.541873
1055.337	93.193229
1055.514	92.322667
1055.691	92.071451
1055.868	91.545808
1056.044	91.590512
1056.221	92.132352
1056.398	91.935981
1056.575	91.648047
1056.751	91.313554
1056.928	91.011156
1057.105	90.603331
1057.282	89.931240
1057.458	89.726660
1057.635	88.990930
1057.812	89.347968
1057.988	89.291943
1058.165	88.688623
1058.341	88.857246
1058.518	89.170954
1058.694	89.438445
1058.871	90.014448
1059.047	89.963379
1059.224	89.649110
1059.401	90.108750
1059.577	90.416747
1059.753	90.150900
1059.930	89.326567
1060.106	88.719225
1060.282	88.830439
1060.459	88.929218
1060.635	88.658991
1060.812	88.735324
1060.988	89.000819
1061.164	89.472403
1061.340	89.143145
1061.517	88.654516
1061.693	88.360232
1061.869	88.802167
1062.045	89.085801
1062.221	88.418840
1062.398	88.028856
1062.574	87.952530
1062.750	87.695744
1062.926	87.018472
1063.102	86.124352
1063.278	85.825311
1063.454	86.581328
1063.630	86.767239
1063.806	86.807642
1063.982	86.630299
1064.158	86.366340
1064.334	86.118824
1064.510	86.604438
1064.686	86.912052
1064.862	87.747552
1065.038	88.745030
1065.214	89.222125
1065.389	88.478818
1065.565	88.641640
1065.741	88.618372
1065.917	89.356102
1066.093	90.299418
1066.268	90.284485
1066.444	89.590661
1066.620	89.422272
1066.795	89.037706
1066.971	88.819963
1067.147	88.005335
1067.322	87.737809
1067.498	87.098270
1067.673	87.229049
1067.849	86.979725
1068.025	86.825270
1068.200	87.768489
1068.376	88.181001
1068.551	87.196700
1068.727	86.857523
1068.902	86.480282
1069.078	86.964623
1069.253	87.909392
1069.428	88.511598
1069.604	88.681476
1069.779	88.169749
1069.954	88.036216
1070.130	88.275031
1070.305	88.265651
1070.480	88.680086
1070.656	88.881542
1070.831	89.257535
1071.006	88.532127
1071.181	88.361809
1071.357	88.382486
1071.532	88.705233
1071.707	88.824144
1071.882	88.134105
1072.057	87.434930
1072.232	87.549035
1072.407	87.233703
1072.582	87.415255
1072.757	87.087965
1072.932	87.617031
1073.107	87.507926
1073.282	87.389726
1073.457	86.595083
1073.632	86.543680
1073.807	87.576779
1073.982	87.482181
1074.157	87.342693
1074.332	87.802958
1074.507	87.014486
1074.682	86.155853
1074.856	86.010467
1075.031	86.450747
1075.206	86.669780
1075.381	86.615883
1075.556	86.576998
1075.730	86.085463
1075.905	85.687446
1076.080	84.304137
1076.254	83.105191
1076.429	83.641503
1076.604	84.580170
1076.778	84.626511
1076.953	83.932856
1077.127	83.184585
1077.302	82.505212
1077.477	81.672567
1077.651	81.147162
1077.826	81.460402
1078.000	82.609069
1078.175	84.201147
1078.349	83.889398
1078.523	83.666764
1078.698	83.734275
1078.872	83.792253
1079.047	83.948499
1079.221	84.570009
1079.395	85.846767
1079.570	85.832922
1079.744	85.598562
1079.918	85.397967
1080.092	84.979814
1080.267	84.815979
1080.441	84.693955
1080.615	84.719056
1080.789	85.335577
1080.963	84.974455
1081.137	83.783506
1081.312	82.583367
1081.486	82.564626
1081.660	82.389488
1081.834	82.357084
1082.008	81.737099
1082.182	81.943283
1082.356	81.690717
1082.530	81.315122
1082.704	80.167641
1082.878	80.142166
1083.052	81.567278
1083.226	82.006933
1083.400	81.824303
1083.573	81.694958
1083.747	81.722664
1083.921	81.534004
1084.095	81.250060
1084.269	81.565185
1084.443	81.725002
1084.616	82.240356
1084.790	82.567951
1084.964	81.772680
1085.138	81.576956
1085.311	81.370584
1085.485	81.463055
1085.659	80.709911
1085.832	80.847083
1086.006	80.892387
1086.179	80.371924
1086.353	80.306583
1086.527	80.163735
1086.700	80.221981
1086.874	80.655202
1087.047	80.645224
1087.221	80.856361
1087.394	81.242607
1087.568	81.884795
1087.741	82.256146
1087.914	82.356850
1088.088	83.245960
1088.261	83.612896
1088.435	83.721670
1088.608	84.043553
1088.781	84.322035
1088.954	84.757269
1089.128	84.415128
1089.301	83.953437
1089.474	83.953967
1089.647	83.669381
1089.821	83.097675
1089.994	82.332391
1090.167	82.198245
1090.340	82.158832
1090.513	81.550615
1090.686	80.598462
1090.859	80.106577
1091.032	80.121211
1091.206	79.655216
1091.379	78.743240
1091.552	78.419489
1091.725	78.762722
1091.898	79.007863
1092.071	78.698982
1092.244	78.105913
1092.416	77.313765
1092.589	77.559928
1092.762	77.656908
1092.935	78.121320
1093.108	78.848772
1093.281	79.498477
1093.453	79.544901
1093.626	79.369689
1093.799	79.062322
1093.972	78.702731
1094.145	79.227133
1094.317	79.904782
1094.490	80.291599
1094.663	79.984229
1094.835	79.492050
1095.008	78.638331
1095.181	77.909170
1095.353	77.757906
1095.526	77.786491
1095.698	77.559576
1095.871	77.981565
1096.043	77.333652
1096.216	76.894310
1096.388	76.154501
1096.561	75.392815
1096.733	74.775382
1096.906	75.108685
1097.078	75.801644
1097.250	76.059150
1097.423	76.367157
1097.595	76.838382
1097.768	76.166566
1097.940	76.141073
1098.112	76.447359
1098.284	76.786578
1098.457	77.511218
1098.629	78.798707
1098.801	79.317591
1098.973	79.307181
1099.146	79.693066
1099.318	79.714530
1099.490	79.507657
1099.662	80.508143
1099.834	80.668076
1100.006	79.994721
1100.178	79.989942
1100.350	80.012070
1100.522	79.452566
1100.694	78.452756
1100.866	78.005663
1101.038	77.864418
1101.210	77.505734
1101.382	77.158737
1101.554	75.847719
1101.726	75.909379
1101.898	76.263706
1102.070	75.860473
1102.241	75.091670
1102.413	74.599053
1102.585	74.596592
1102.757	74.601971
1102.929	73.933769
1103.100	73.389562
1103.272	73.067237
1103.444	73.514434
1103.616	73.457264
1103.787	72.810400
1103.959	72.080771
1104.130	72.208447
1104.302	72.035760
1104.474	71.672665
1104.645	71.063985
1104.817	71.213579
1104.988	71.037723
1105.160	71.393293
1105.331	71.490386
1105.503	70.886428
1105.674	71.688996
1105.846	72.267153
1106.017	72.427160
1106.189	72.458757
1106.360	72.359874
1106.531	72.393447
1106.703	72.195883
1106.874	72.165726
1107.045	72.056692
1107.217	71.985233
1107.388	71.820177
1107.559	70.693722
1107.730	69.887269
1107.902	70.135990
1108.073	70.472747
1108.244	71.146477
1108.415	71.539334
1108.586	71.467844
1108.757	71.745118
1108.929	71.729249
1109.100	71.459865
1109.271	71.964889
1109.442	72.535497
1109.613	73.775413
1109.784	73.783067
1109.955	73.859617
1110.126	73.422400
1110.297	73.284710
1110.468	73.434836
1110.639	73.517498
1110.809	73.174342
1110.980	73.080916
1111.151	72.949384
1111.322	73.205162
1111.493	72.584895
1111.664	72.201463
1111.834	71.450538
1112.005	71.581845
1112.176	71.647404
1112.347	71.389390
1112.517	71.022385
1112.688	70.897858
1112.859	70.678296
1113.029	70.452931
1113.200	70.359351
1113.371	70.445674
1113.541	70.197375
1113.712	70.571858
1113.882	70.256208
1114.053	69.828659
1114.223	69.979759
1114.394	70.092695
1114.564	70.023797
1114.735	70.109267
1114.905	70.415343
1115.076	69.999787
1115.246	69.837158
1115.416	69.529526
1115.587	68.940457
1115.757	68.408360
1115.927	68.226621
1116.098	67.809317
1116.268	67.419792
1116.438	67.440379
1116.609	67.751953
1116.779	67.785069
1116.949	68.078871
1117.119	67.975061
1117.289	68.019197
1117.459	68.096441
1117.630	68.575726
1117.800	69.109366
1117.970	69.066796
1118.140	69.403003
1118.310	69.355438
1118.480	68.744817
1118.650	67.852797
1118.820	67.556566
1118.990	67.168800
1119.160	67.172081
1119.330	67.202083
1119.500	66.810604
1119.670	66.095395
1119.840	65.870355
1120.010	65.309536
1120.179	65.200034
1120.349	65.759641
1120.519	65.890672
1120.689	65.350230
1120.859	65.676016
1121.028	66.380242
1121.198	66.651483
1121.368	66.665188
1121.538	67.053520
1121.707	67.478271
1121.877	67.735416
1122.047	68.019472
1122.216	67.484086
1122.386	67.427299
1122.555	67.556097
1122.725	67.109749
1122.894	65.968777
1123.064	65.327515
1123.233	65.237889
1123.403	64.561267
1123.573	63.724581
1123.742	62.985272
1123.911	62.902220
1124.081	63.059336
1124.250	63.747156
1124.419	64.240566
1124.589	64.262031
1124.758	64.501569
1124.927	64.295199
1125.097	64.107294
1125.266	64.277113
1125.435	64.305156
1125.605	64.973224
1125.774	64.643731
1125.943	64.131221
1126.112	63.160437
1126.281	62.788662
1126.450	62.777756
1126.620	62.642483
1126.789	62.563472
1126.958	62.393083
1127.127	62.171962
1127.296	62.456542
1127.465	62.438040
1127.634	62.580749
1127.803	62.948196
1127.972	63.081856
1128.141	62.556614
1128.310	62.550688
1128.479	63.221996
1128.648	63.594865
1128.817	63.803921
1128.985	63.823824
1129.154	63.158658
1129.323	63.003744
1129.492	62.840081
1129.661	62.245360
1129.829	62.023081
1129.998	62.223174
1130.167	61.890512
1130.336	60.807296
1130.504	61.149610
1130.673	61.497496
1130.842	61.220782
1131.010	61.428129
1131.179	61.048275
1131.347	60.358191
1131.516	59.970308
1131.685	59.785894
1131.853	59.516720
1132.022	59.445460
1132.190	59.845583
1132.359	59.472566
1132.527	58.986167
1132.696	59.076278
1132.864	59.026679
1133.032	58.974946
1133.201	59.413323
1133.369	60.008771
1133.537	60.343082
1133.706	60.554518
1133.874	60.896611
1134.042	60.434472
1134.211	60.127147
1134.379	59.949761
1134.547	59.882354
1134.715	59.956398
1134.884	60.035214
1135.052	59.529822
1135.220	59.044619
1135.388	59.104329
1135.556	59.122695
1135.724	58.981020
1135.892	58.913883
1136.060	58.879880
1136.228	59.069391
1136.396	59.258020
1136.564	59.143734
1136.732	59.125036
1136.900	59.059276
1137.068	58.806777
1137.236	58.228061
1137.404	57.724561
1137.572	57.393383
1137.740	57.734711
1137.908	57.636455
1138.076	57.739961
1138.243	57.881752
1138.411	57.888391
1138.579	57.731939
1138.747	57.707331
1138.914	57.530962
1139.082	57.411925
1139.250	57.610975
1139.417	57.834024
1139.585	57.146086
1139.753	56.963228
1139.920	56.697203
1140.088	56.111464
1140.256	55.877724
1140.423	56.008235
1140.591	56.253481
1140.758	56.927292
1140.926	57.044135
1141.093	57.020808
1141.261	56.811840
1141.428	57.117518
1141.596	57.024189
1141.763	56.549180
1141.930	56.595062
1142.098	56.438037
1142.265	56.030078
1142.432	55.907902
1142.600	55.623188
1142.767	55.635706
1142.934	55.280368
1143.102	54.558254
1143.269	54.471964
1143.436	54.767893
1143.603	54.798178
1143.771	54.609495
1143.938	54.892741
1144.105	55.015533
1144.272	54.762968
1144.439	54.554567
1144.606	54.430157
1144.773	54.881917
1144.940	55.390617
1145.107	55.316648
1145.274	55.131801
1145.441	55.557328
1145.608	55.844141
1145.775	56.010208
1145.942	55.554890
1146.109	55.668603
1146.276	55.583063
1146.443	55.658651
1146.610	55.482783
1146.776	55.563416
1146.943	55.621168
1147.110	55.194755
1147.277	54.672867
1147.444	54.651144
1147.610	54.133475
1147.777	54.188333
1147.944	54.306550
1148.110	54.532542
1148.277	54.179861
1148.444	53.650626
1148.610	53.748652
1148.777	53.733738
1148.944	54.333761
1149.110	54.799374
1149.277	54.677054
1149.443	54.854219
1149.610	55.101003
1149.776	54.736097
1149.943	54.984316
1150.109	54.856754
1150.276	55.103864
1150.442	55.065600
1150.608	55.304260
1150.775	55.056135
1150.941	54.363330
1151.107	54.257218
1151.274	54.129031
1151.440	53.545532
1151.606	53.411788
1151.773	52.561790
1151.939	52.655704
1152.105	52.556276
1152.271	52.803978
1152.438	52.851535
1152.604	52.591920
1152.770	52.840206
1152.936	53.205261
1153.102	53.625990
1153.268	54.186894
1153.434	54.565449
1153.600	54.540621
1153.766	54.710795
1153.932	55.271432
1154.098	54.730192
1154.264	54.613714
1154.430	55.225026
1154.596	55.312744
1154.762	55.037566
1154.928	54.769099
1155.094	54.903196
1155.260	54.472634
1155.426	54.764643
1155.591	54.224464
1155.757	53.560164
1155.923	52.923716
1156.089	52.179421
1156.255	51.298144
1156.420	51.090012
1156.586	51.201917
1156.752	51.081485
1156.917	50.822310
1157.083	51.063381
1157.249	51.164952
1157.414	51.403625
1157.580	51.273554
1157.745	51.519032
1157.911	51.876730
1158.076	52.545784
1158.242	52.550534
1158.407	52.409458
1158.573	52.637641
1158.738	53.052674
1158.904	52.838000
1159.069	52.681908
1159.235	52.974108
1159.400	53.166499
1159.565	53.307332
1159.731	53.560699
1159.896	53.496787
1160.061	53.914704
1160.227	53.902615
1160.392	53.523716
1160.557	52.968942
1160.722	52.901013
1160.888	53.124632
1161.053	53.339461
1161.218	53.575713
1161.383	53.585761
1161.548	52.993706
1161.713	52.485234
1161.878	52.309106
1162.043	52.617477
1162.208	52.508156
1162.374	52.603227
1162.539	52.871521
1162.704	52.611464
1162.869	52.233064
1163.033	51.899048
1163.198	51.818488
1163.363	52.394143
1163.528	52.685195
1163.693	52.661469
1163.858	52.258549
1164.023	52.528598
1164.188	52.549095
1164.353	52.520102
1164.517	52.615264
1164.682	52.544373
1164.847	52.335763
1165.011	52.590904
1165.176	52.302315
1165.341	51.974583
1165.506	51.666350
1165.670	51.536804
1165.835	51.417474
1166.000	51.451841
1166.164	51.498132
1166.329	51.478873
1166.493	51.361234
1166.658	51.710755
1166.822	51.956073
1166.987	52.359571
1167.151	52.544216
1167.316	52.442176
1167.480	52.280161
1167.645	52.044157
1167.809	51.456514
1167.973	51.352197
1168.138	51.212152
1168.302	50.946320
1168.466	50.611051
1168.631	50.222806
1168.795	49.609830
1168.959	49.699412
1169.124	50.693666
1169.288	51.075756
1169.452	51.379143
1169.616	52.289825
1169.780	52.354595
1169.944	52.536305
1170.109	53.112486
1170.273	53.333317
1170.437	53.139024
1170.601	53.097008
1170.765	53.018657
1170.929	52.021993
1171.093	51.880598
1171.257	51.779127
1171.421	51.103364
1171.585	51.094573
1171.749	50.846125
1171.913	50.587185
1172.077	50.972324
1172.240	51.673163
1172.404	52.092502
1172.568	52.132909
1172.732	52.655619
1172.896	52.985169
1173.060	53.294645
1173.223	53.827966
1173.387	53.780735
1173.551	54.097174
1173.715	54.371202
1173.878	54.166166
1174.042	53.576671
1174.206	53.691124
1174.369	53.558640
1174.533	53.043921
1174.696	52.633995
1174.860	52.276868
1175.023	51.792717
1175.187	51.338162
1175.351	51.047481
1175.514	51.025268
1175.677	51.235869
1175.841	51.507128
1176.004	51.092536
1176.168	50.821736
1176.331	51.099469
1176.495	51.468092
1176.658	51.469842
1176.821	51.912598
1176.985	52.516070
1177.148	52.963877
1177.311	53.381162
1177.474	53.101050
1177.638	52.690173
1177.801	52.620357
1177.964	52.986198
1178.127	52.726818
1178.291	52.330206
1178.454	52.191571
1178.617	51.589570
1178.780	51.333464
1178.943	51.176836
1179.106	50.681507
1179.269	50.717375
1179.432	50.928810
1179.595	50.945333
1179.758	50.574208
1179.921	50.650891
1180.084	50.847137
1180.247	51.321789
1180.410	51.721811
1180.573	51.997184
1180.736	52.051116
1180.899	52.287448
1181.061	52.386392
1181.224	52.265486
1181.387	52.699560
1181.550	53.018995
1181.713	53.278870
1181.875	52.955316
1182.038	52.780822
1182.201	53.102973
1182.363	52.935329
1182.526	52.807435
1182.689	52.508566
1182.851	52.509526
1183.014	52.986923
1183.177	52.959093
1183.339	53.166650
1183.502	53.405186
1183.664	54.126980
1183.827	54.783563
1183.989	54.697397
1184.152	54.709941
1184.314	54.561378
1184.477	54.560921
1184.639	54.355808
1184.801	54.251568
1184.964	54.230808
1185.126	54.109544
1185.288	54.149510
1185.451	53.901071
1185.613	53.581135
1185.775	53.429867
1185.938	54.030664
1186.100	54.697591
1186.262	55.162361
1186.424	55.759934
1186.586	56.136102
1186.749	56.244849
1186.911	55.926125
1187.073	55.229179
1187.235	55.181187
1187.397	54.863112
1187.559	54.932992
1187.721	54.475520
1187.883	54.373894
1188.045	54.225353
1188.207	54.048625
1188.369	53.541476
1188.531	53.235854
1188.693	53.599517
1188.855	54.005534
1189.017	53.960094
1189.179	53.730587
1189.341	53.378599
1189.502	53.212698
1189.664	53.015746
1189.826	52.720950
1189.988	52.527435
1190.150	52.753995
1190.311	53.208154
1190.473	53.432956
1190.635	53.555331
1190.796	53.559192
1190.958	54.166031
1191.120	54.794006
1191.281	55.137237
1191.443	55.544330
1191.604	56.202207
1191.766	56.597878
1191.928	56.953323
1192.089	56.806587
1192.251	57.496340
1192.412	57.619844
1192.574	57.229566
1192.735	56.913317
1192.896	56.990945
1193.058	56.981481
1193.219	57.002510
1193.381	56.933238
1193.542	56.804735
1193.703	56.497237
1193.865	56.470346
1194.026	55.745916
1194.187	55.106366
1194.349	55.431938
1194.510	55.951117
1194.671	55.493818
1194.832	55.423593
1194.993	55.237939
1195.155	54.949260
1195.316	55.024263
1195.477	55.928033
1195.638	56.524211
1195.799	56.780470
1195.960	57.168497
1196.121	57.492217
1196.282	57.549980
1196.443	57.910657
1196.604	58.095408
1196.765	58.184977
1196.926	58.710275
1197.087	59.327687
1197.248	59.082107
1197.409	58.797050
1197.570	59.000713
1197.730	59.639023
1197.891	59.949474
1198.052	59.928684
1198.213	60.194247
1198.374	60.039030
1198.534	59.776701
1198.695	59.051808
1198.856	58.095278
1199.016	57.686869
1199.177	57.855649
1199.338	58.166946
1199.498	58.129722
1199.659	58.185868
1199.820	58.194037
1199.980	57.774977
1200.141	58.194469
1200.301	58.811806
1200.462	59.565901
1200.622	60.100150
1200.783	60.355352
1200.943	60.399695
1201.104	59.857010
1201.264	59.563043
1201.424	59.187876
1201.585	59.062106
1201.745	59.141676
1201.906	59.068460
1202.066	58.406976
1202.226	57.783221
1202.386	57.470567
1202.547	57.146544
1202.707	57.185979
1202.867	57.753738
1203.027	57.971095
1203.188	58.094598
1203.348	58.294054
1203.508	58.614315
1203.668	58.771779
1203.828	59.512683
1203.988	60.099555
1204.148	60.209983
1204.308	60.537794
1204.468	60.564795
1204.628	60.014104
1204.788	59.914142
1204.948	59.995475
1205.108	59.865943
1205.268	60.058366
1205.428	59.993030
1205.588	59.897388
1205.748	60.058290
1205.908	60.865905
1206.068	61.311047
1206.228	61.225858
1206.387	61.427890
1206.547	61.624082
1206.707	61.297950
1206.867	61.096915
1207.026	60.990887
1207.186	60.906107
1207.346	60.670414
1207.505	60.453607
1207.665	59.787725
1207.825	59.400012
1207.984	59.417597
1208.144	59.470760
1208.303	59.540539
1208.463	59.902055
1208.622	60.080386
1208.782	60.046589
1208.941	60.392778
1209.101	60.565990
1209.260	60.279841
1209.420	60.281499
1209.579	60.035167
1209.739	59.721626
1209.898	59.472222
1210.057	59.113423
1210.217	59.021539
1210.376	58.939302
1210.535	58.825291
1210.694	58.954608
1210.854	59.369859
1211.013	59.824206
1211.172	59.802188
1211.331	60.237810
1211.490	60.421275
1211.650	60.753714
1211.809	61.504864
1211.968	62.034735
1212.127	62.660453
1212.286	63.214129
1212.445	62.927074
1212.604	62.376203
1212.763	62.436403
1212.922	63.186996
1213.081	63.241818
1213.240	63.833404
1213.399	63.968078
1213.558	63.844545
1213.717	63.587880
1213.876	63.514495
1214.035	63.331004
1214.194	63.695401
1214.352	64.586454
1214.511	65.183174
1214.670	65.010167
1214.829	65.038472
1214.988	65.050191
1215.146	64.958435
1215.305	64.557852
1215.464	63.979732
1215.622	63.672137
1215.781	63.831445
1215.940	63.410705
1216.098	62.456530
1216.257	61.863727
1216.415	61.757346
1216.574	61.885597
1216.732	61.871238
1216.891	61.873331
1217.049	62.243392
1217.208	63.504295
1217.366	64.140156
1217.525	64.414482
1217.683	64.877263
1217.842	65.438527
1218.000	65.495467
1218.158	65.296641
1218.317	65.096943
1218.475	64.909602
1218.633	64.461733
1218.792	64.404179
1218.950	63.914819
1219.108	63.379228
1219.266	63.255588
1219.425	63.556948
1219.583	64.146845
1219.741	64.502545
1219.899	65.081444
1220.057	65.801537
1220.215	65.717677
1220.373	65.970421
1220.531	66.411071
1220.689	66.120926
1220.847	65.734939
1221.005	65.189003
1221.163	64.374117
1221.322	63.540777
1221.479	63.035927
1221.637	62.545768
1221.795	61.682101
1221.953	61.890339
1222.111	62.356167
1222.269	61.920784
1222.427	62.241241
1222.584	63.334031
1222.742	64.272468
1222.900	64.355632
1223.058	64.204056
1223.216	64.151833
1223.373	64.468730
1223.531	64.965664
1223.689	64.967090
1223.846	64.963153
1224.004	65.104741
1224.162	64.846627
1224.319	63.838195
1224.477	62.618485
1224.634	62.942384
1224.792	62.898689
1224.949	63.107908
1225.107	62.997981
1225.264	62.963690
1225.422	63.083559
1225.579	62.854837
1225.737	62.546003
1225.894	62.589284
1226.052	62.607911
1226.209	63.024979
1226.366	62.626331
1226.523	62.737673
1226.681	62.990980
1226.838	62.990677
1226.995	62.853401
1227.153	62.632976
1227.310	62.674567
1227.467	63.162551
1227.624	63.408790
1227.781	64.008354
1227.938	63.958591
1228.096	64.255176
1228.253	64.646820
1228.410	64.854768
1228.567	64.598502
1228.724	64.162374
1228.881	64.124895
1229.038	64.116691
1229.195	64.037708
1229.352	64.576246
1229.509	65.196491
1229.666	65.771030
1229.823	65.991496
1229.980	66.134102
1230.136	66.216142
1230.293	66.724392
1230.450	67.185644
1230.607	67.682992
1230.764	68.159410
1230.921	68.683176
1231.077	68.785976
1231.234	68.418701
1231.391	68.550141
1231.547	68.911553
1231.704	69.227049
1231.861	68.798127
1232.018	68.614783
1232.174	68.786319
1232.331	68.850929
1232.487	69.186198
1232.644	69.136400
1232.800	68.909676
1232.957	68.690617
1233.113	68.302563
1233.270	68.264234
1233.426	68.722136
1233.583	69.614839
1233.739	69.918891
1233.896	69.947706
1234.052	69.591798
1234.208	69.071189
1234.365	68.866154
1234.521	68.870748
1234.677	69.476021
1234.834	70.605052
1234.990	70.958954
1235.146	70.088042
1235.302	69.250174
1235.459	69.336708
1235.615	69.755113
1235.771	70.029604
1235.927	69.802924
1236.083	69.885917
1236.239	70.370889
1236.396	69.803566
1236.552	68.425194
1236.708	67.555672
1236.864	67.942429
1237.020	68.719162
1237.176	68.569182
1237.332	68.395899
1237.488	68.592288
1237.644	68.720200
1237.799	68.589617
1237.955	68.231881
1238.111	68.602428
1238.267	69.392869
1238.423	69.496503
1238.579	68.667061
1238.734	68.518628
1238.890	69.104585
1239.046	68.711662
1239.202	68.363690
1239.357	68.453306
1239.513	68.592194
1239.669	68.437633
1239.824	68.445526
1239.980	68.519645
1240.136	68.553595
1240.291	69.370964
1240.447	69.238398
1240.603	69.009090
1240.758	69.035269
1240.914	69.086277
1241.069	69.624576
1241.225	69.762577
1241.380	69.878951
1241.535	69.680769
1241.691	68.850683
1241.846	68.489959
1242.002	68.364120
1242.157	68.311777
1242.313	68.072795
1242.468	68.448727
1242.623	69.051856
1242.778	68.997360
1242.934	68.387753
1243.089	67.759176
1243.244	67.838838
1243.399	68.571683
1243.554	68.913384
1243.710	69.208978
1243.865	69.344471
1244.020	68.809092
1244.175	68.729477
1244.330	68.506955
1244.485	67.873751
1244.640	67.625948
1244.795	67.974418
1244.950	68.084253
1245.105	67.860976
1245.260	68.162530
1245.415	68.003468
1245.570	67.873674
1245.725	68.966949
1245.880	69.044198
1246.035	69.408205
1246.190	70.151378
1246.345	71.489566
1246.499	72.158566
1246.654	71.975388
1246.809	72.106546
1246.964	72.192209
1247.118	71.792345
1247.273	71.435117
1247.428	71.427305
1247.583	71.739434
1247.737	70.934201
1247.892	70.831929
1248.047	70.717647
1248.201	70.654586
1248.356	71.035617
1248.510	71.163732
1248.665	70.950592
1248.819	72.012657
1248.974	73.278692
1249.128	73.447916
1249.283	73.349584
1249.437	74.043300
1249.592	74.144231
1249.746	74.082202
1249.900	73.928354
1250.055	73.909342
1250.209	74.231940
1250.363	75.234806
1250.518	74.320026
1250.672	73.341432
1250.826	72.841842
1250.981	73.458677
1251.135	73.659270
1251.289	73.328967
1251.443	72.528069
1251.597	72.136771
1251.751	72.641662
1251.906	72.515988
1252.060	71.039349
1252.214	70.589282
1252.368	70.239308
1252.522	69.625599
1252.676	68.558014
1252.830	68.449481
1252.984	69.219246
1253.138	70.109067
1253.292	70.712442
1253.446	69.390630
1253.600	68.692405
1253.754	69.757325
1253.907	70.221777
1254.061	70.713246
1254.215	71.487176
1254.369	71.726323
1254.523	71.808677
1254.677	71.456597
1254.830	70.857554
1254.984	70.711500
1255.138	71.214280
1255.292	71.813634
1255.445	71.560970
1255.599	71.912754
1255.752	72.212681
1255.906	72.084590
1256.060	72.412989
1256.213	72.407024
1256.367	72.770524
1256.520	72.999982
1256.674	72.800252
1256.827	72.830813
1256.981	72.774995
1257.134	72.961482
1257.288	73.000241
1257.441	72.745322
1257.594	72.297415
1257.748	71.768673
1257.901	70.961678
1258.055	70.343997
1258.208	69.884151
1258.361	69.435531
1258.515	69.530833
1258.668	70.064480
1258.821	70.470112
1258.974	70.569673
1259.127	70.998451
1259.281	71.752627
1259.434	72.480699
1259.587	72.959798
1259.740	72.921181
1259.893	74.139395
1260.046	75.074188
1260.199	75.856568
1260.352	75.894119
1260.505	75.347419
1260.658	74.982492
1260.811	74.587426
1260.964	75.028217
1261.117	75.872448
1261.270	75.646562
1261.423	75.639755
1261.576	75.444897
1261.729	76.280505
1261.882	76.395677
1262.035	75.808019
1262.188	76.291352
1262.340	77.055238
1262.493	77.699221
1262.646	77.481865
1262.798	76.181729
1262.951	76.593343
1263.104	77.616017
1263.257	77.013860
1263.409	76.257041
1263.562	75.942608
1263.714	76.242727
1263.867	76.238804
1264.020	76.635470
1264.172	76.785885
1264.325	75.972967
1264.477	76.286359
1264.630	76.313985
1264.782	75.886336
1264.935	77.413633
1265.087	77.307635
1265.240	77.091959
1265.392	77.728548
1265.544	78.234056
1265.697	77.241396
1265.849	76.418375
1266.001	77.007837
1266.154	77.034254
1266.306	77.246417
1266.458	76.678945
1266.610	75.347095
1266.762	75.057863
1266.915	74.309978
1267.067	73.377474
1267.219	72.320564
1267.371	72.430711
1267.523	72.830594
1267.675	72.542013
1267.828	72.592016
1267.979	72.211327
1268.132	72.230619
1268.284	72.722451
1268.436	73.165777
1268.588	73.668765
1268.740	74.659573
1268.891	74.087114
1269.043	74.046594
1269.195	73.784165
1269.347	74.706032
1269.499	75.877831
1269.651	76.698796
1269.803	77.333030
1269.955	77.033005
1270.106	77.805697
1270.258	78.318140
1270.410	78.173461
1270.562	79.893635
1270.713	80.057036
1270.865	80.548741
1271.017	81.068367
1271.168	79.828528
1271.320	78.911457
1271.471	78.514108
1271.623	78.997032
1271.775	78.320184
1271.926	78.099581
1272.078	78.401395
1272.229	78.638451
1272.381	79.560244
1272.532	80.214419
1272.684	79.602698
1272.835	79.948847
1272.986	80.290603
1273.138	80.339463
1273.289	78.784778
1273.440	78.208830
1273.592	78.382127
1273.743	77.723303
1273.894	77.033045
1274.046	76.013450
1274.197	75.018082
1274.348	74.253895
1274.500	73.627328
1274.651	73.361829
1274.802	73.756300
>>>>>>>>>> END of Data <<<<<<<<<<
