Date	2025年07月03日木曜日 10時01分07秒
Spectrometers	SR401765
ダーク	使用
リファレンス	使用
積分時間[msec]	300
平均回数	1
ｽﾑｰｼﾞﾝｸﾞ	5
Electrical Dark	USE
ピクセル数	3648
計測モード	反射率
保存開始波長[nm]	598.495
保存終了波長[nm]	1274.802
保存ﾋﾟｯﾁ波長[nm]	全波長

>>>>>>>>>> Data Start <<<<<<<<<<<<
598.495	0.000000
598.713	0.000000
598.931	0.000000
599.148	0.000000
599.366	247.263908
599.584	143.078343
599.802	196.513939
600.020	0.000000
600.238	0.000000
600.455	0.000000
600.673	0.000000
600.891	28.873066
601.109	25.800164
601.326	26.642780
601.544	26.382389
601.762	26.615880
601.979	26.851051
602.197	27.320318
602.415	27.473422
602.632	27.639471
602.850	27.805279
603.067	27.843247
603.285	27.797696
603.502	27.901349
603.720	27.826517
603.938	27.884327
604.155	27.988961
604.372	28.075935
604.590	28.178665
604.807	28.425966
605.025	28.599743
605.242	28.595206
605.460	28.496511
605.677	28.642875
605.894	28.815965
606.112	29.082458
606.329	29.366063
606.546	29.452362
606.764	29.444905
606.981	29.362798
607.198	29.086024
607.415	28.990070
607.633	28.989537
607.850	29.355118
608.067	29.766497
608.284	30.098058
608.501	30.389925
608.718	30.785697
608.935	31.044921
609.153	31.283203
609.370	31.725520
609.587	32.272061
609.804	32.592963
610.021	32.896749
610.238	32.964691
610.455	32.856212
610.672	32.773545
610.889	32.829171
611.106	32.914678
611.323	33.034692
611.540	33.211623
611.756	33.346138
611.973	33.444278
612.190	33.593275
612.407	33.877604
612.624	34.307403
612.841	34.664594
613.057	35.059866
613.274	35.336649
613.491	35.498491
613.708	35.832666
613.925	36.020795
614.141	36.262465
614.358	36.751779
614.575	37.213757
614.791	37.459456
615.008	37.533643
615.225	37.849986
615.441	38.008651
615.658	38.168818
615.874	38.278805
616.091	38.439167
616.307	38.610495
616.524	38.555180
616.740	38.441158
616.957	38.504316
617.173	38.746128
617.390	39.002900
617.606	39.130396
617.823	39.362790
618.039	39.655548
618.256	39.969671
618.472	40.063362
618.688	40.316720
618.905	40.737175
619.121	41.361967
619.337	41.817173
619.554	42.145859
619.770	42.456698
619.986	42.703494
620.202	42.767077
620.419	42.592415
620.635	42.591284
620.851	42.825277
621.067	43.112911
621.283	43.420013
621.499	43.514921
621.716	43.539992
621.932	43.540050
622.148	43.538091
622.364	43.768006
622.580	44.145970
622.796	44.716419
623.012	45.205995
623.228	45.555295
623.444	45.645251
623.660	45.689335
623.876	45.783862
624.092	46.136438
624.308	46.471424
624.524	46.925848
624.740	47.182912
624.955	47.258778
625.171	47.433905
625.387	47.624844
625.603	47.808841
625.819	48.152716
626.034	48.331292
626.250	48.348448
626.466	48.438702
626.682	48.726063
626.897	48.816890
627.113	48.979867
627.329	49.421679
627.544	49.824844
627.760	50.143325
627.976	50.389006
628.191	50.495495
628.407	50.684285
628.623	50.997610
628.838	51.171728
629.054	51.232438
629.269	51.342553
629.485	51.518674
629.700	51.711904
629.916	51.755211
630.131	51.681312
630.347	51.739918
630.562	51.947602
630.777	52.198938
630.993	52.369881
631.208	52.526054
631.424	52.811237
631.639	53.053280
631.854	53.155438
632.070	53.114439
632.285	53.217853
632.500	53.686489
632.715	54.102637
632.931	54.461241
633.146	54.629402
633.361	54.737101
633.576	54.973480
633.791	54.995620
634.007	55.073493
634.222	55.443498
634.437	55.957602
634.652	56.296854
634.867	56.413143
635.082	56.585398
635.297	56.597368
635.512	56.746817
635.727	57.039773
635.942	57.218082
636.157	57.517532
636.372	57.851209
636.587	58.054653
636.802	58.094681
637.017	58.066120
637.232	58.028740
637.447	58.229715
637.662	58.701215
637.876	59.066689
638.091	59.403903
638.306	59.846882
638.521	60.237920
638.736	60.507745
638.951	60.590196
639.165	60.769694
639.380	61.005327
639.595	61.234751
639.809	61.357756
640.024	61.421859
640.239	61.526203
640.453	61.605309
640.668	61.641152
640.883	61.653336
641.097	61.687078
641.312	61.858545
641.526	61.960693
641.741	62.068990
641.955	62.166483
642.170	62.063520
642.384	62.006123
642.599	62.253943
642.813	62.306557
643.028	62.118129
643.242	62.114267
643.457	62.379355
643.671	62.695391
643.885	63.024909
644.100	63.413259
644.314	63.890162
644.528	64.379002
644.743	64.750446
644.957	64.744081
645.171	65.185271
645.386	65.726655
645.600	65.983221
645.814	66.089130
646.028	66.139377
646.242	66.243996
646.457	66.349981
646.671	66.395269
646.885	66.469589
647.099	66.448090
647.313	66.673942
647.527	66.719224
647.741	66.889128
647.955	67.125027
648.169	67.037548
648.383	66.562941
648.597	66.069401
648.811	65.603043
649.025	65.140760
649.239	64.903316
649.453	64.919888
649.667	64.835559
649.881	64.575908
650.095	64.091031
650.309	63.623875
650.523	63.735903
650.737	64.307364
650.950	64.794020
651.164	65.368687
651.378	65.938885
651.592	66.284482
651.805	66.528758
652.019	66.744858
652.233	66.954152
652.447	67.209395
652.660	67.627169
652.874	67.676297
653.088	67.527941
653.301	67.493405
653.515	67.392977
653.728	67.267775
653.942	67.299616
654.156	67.430173
654.369	67.611419
654.583	67.937507
654.796	68.515588
655.010	68.924523
655.223	69.185903
655.437	69.399180
655.650	69.481717
655.863	69.428564
656.077	69.515166
656.290	69.625881
656.504	69.590087
656.717	69.523985
656.930	69.500357
657.144	69.241673
657.357	69.099385
657.570	69.242142
657.783	69.306269
657.997	69.518724
658.210	69.841818
658.423	69.985474
658.636	70.003927
658.849	69.909009
659.063	69.906364
659.276	70.033954
659.489	70.416728
659.702	70.683537
659.915	70.604961
660.128	70.642054
660.341	70.717472
660.554	70.836186
660.767	70.803936
660.980	70.858155
661.193	71.155506
661.406	71.305817
661.619	71.131916
661.832	70.742539
662.045	70.334097
662.258	70.394333
662.471	70.558261
662.684	70.485770
662.897	70.496269
663.110	70.579011
663.322	70.449757
663.535	70.545795
663.748	70.863325
663.961	71.217071
664.174	71.494033
664.386	71.653721
664.599	71.523473
664.812	71.492765
665.024	71.679150
665.237	71.795607
665.450	72.227085
665.662	72.871148
665.875	73.158455
666.088	73.243834
666.300	73.286316
666.513	73.654626
666.725	74.176405
666.938	74.723805
667.150	75.094774
667.363	75.219874
667.575	75.278748
667.788	75.194192
668.000	74.866191
668.213	74.622435
668.425	74.544352
668.638	74.513085
668.850	74.213037
669.062	74.043001
669.275	74.057571
669.487	74.009526
669.699	74.002050
669.912	74.028800
670.124	73.989104
670.336	74.095137
670.548	74.033459
670.761	73.912921
670.973	73.952078
671.185	74.002219
671.397	73.927403
671.609	73.681636
671.822	73.607761
672.034	73.702059
672.246	73.897464
672.458	74.147949
672.670	74.235132
672.882	74.372636
673.094	74.339651
673.306	74.404401
673.518	74.744518
673.730	75.048919
673.942	75.504674
674.154	75.812945
674.366	75.902655
674.578	75.789439
674.790	75.643727
675.002	75.710213
675.214	75.667249
675.425	75.743872
675.637	75.840194
675.849	75.756848
676.061	75.688583
676.273	75.359407
676.484	75.067032
676.696	74.921282
676.908	74.798765
677.120	74.648985
677.331	74.501064
677.543	74.641143
677.755	74.962650
677.966	75.129976
678.178	74.977175
678.389	74.858400
678.601	75.151865
678.813	75.352274
679.024	75.409948
679.236	75.506767
679.447	75.607370
679.659	75.756865
679.870	75.903059
680.082	75.841480
680.293	75.649416
680.505	75.862415
680.716	75.950962
680.927	75.754199
681.139	75.695670
681.350	75.750237
681.562	75.898970
681.773	76.015329
681.984	75.611634
682.196	74.962138
682.407	74.459027
682.618	74.268172
682.829	74.002069
683.041	73.928581
683.252	74.023989
683.463	74.208826
683.674	74.609385
683.885	74.819616
684.097	74.846251
684.308	75.024155
684.519	75.273649
684.730	75.654046
684.941	75.977192
685.152	76.368112
685.363	76.701970
685.574	76.818367
685.785	76.600689
685.996	76.117428
686.207	75.865046
686.418	75.900083
686.629	76.223610
686.840	76.676755
687.051	76.870062
687.262	76.777116
687.473	76.424834
687.684	76.079458
687.894	75.859542
688.105	75.807727
688.316	75.842699
688.527	75.825390
688.738	75.756668
688.948	75.494878
689.159	74.983278
689.370	74.504161
689.580	74.095564
689.791	73.788655
690.002	73.430487
690.212	73.053188
690.423	73.150610
690.634	73.524530
690.844	73.593575
691.055	73.585913
691.266	73.942439
691.476	74.674622
691.687	75.341618
691.897	75.548271
692.108	75.746804
692.318	76.203486
692.529	76.520683
692.739	76.444437
692.949	76.331573
693.160	76.441031
693.370	76.621301
693.581	76.549996
693.791	76.472638
694.001	76.522027
694.212	77.012686
694.422	77.491010
694.632	77.483061
694.843	77.362577
695.053	77.210317
695.263	76.980442
695.473	77.035691
695.683	77.363512
695.894	77.643367
696.104	77.617341
696.314	77.546937
696.524	77.474042
696.734	77.175245
696.944	77.189607
697.154	77.524141
697.365	77.689770
697.575	77.770258
697.785	77.672131
697.995	77.357153
698.205	77.273895
698.415	77.363686
698.625	77.405339
698.834	77.573576
699.044	78.052104
699.254	78.356219
699.464	78.640528
699.674	79.111114
699.884	79.286980
700.094	79.263012
700.304	79.191476
700.513	78.791575
700.723	78.055836
700.933	77.355975
701.143	76.655854
701.353	75.939500
701.562	75.438779
701.772	74.984172
701.982	74.683071
702.191	74.583759
702.401	74.482765
702.611	74.457886
702.820	74.613464
703.030	75.046495
703.239	75.371358
703.449	75.674025
703.659	76.206960
703.868	76.869981
704.078	77.416759
704.287	77.693664
704.497	77.709052
704.706	77.495766
704.916	77.130963
705.125	76.862589
705.334	76.719554
705.544	76.796774
705.753	76.961363
705.962	76.733878
706.172	76.145594
706.381	75.767838
706.590	75.600972
706.800	75.660346
707.009	76.061401
707.218	76.436842
707.428	76.649256
707.637	76.472153
707.846	76.267930
708.055	76.440785
708.264	77.052202
708.474	77.907477
708.683	78.403129
708.892	78.670798
709.101	78.759941
709.310	78.723894
709.519	78.742475
709.728	78.817225
709.937	79.321146
710.146	79.884517
710.355	79.710352
710.564	79.006594
710.773	78.135628
710.982	77.420442
711.191	76.845410
711.400	76.579365
711.609	76.659559
711.818	76.788112
712.027	76.794797
712.235	76.724122
712.444	76.434478
712.653	76.356913
712.862	76.627163
713.071	76.782251
713.279	76.717288
713.488	76.671359
713.697	76.757933
713.906	76.621204
714.114	76.414978
714.323	76.173888
714.532	75.835346
714.740	75.655570
714.949	75.625439
715.157	75.560075
715.366	75.659949
715.575	75.899492
715.783	76.117374
715.992	76.012930
716.200	75.790956
716.409	75.550246
716.617	75.351916
716.826	75.274400
717.034	75.255093
717.242	75.226511
717.451	75.396407
717.659	75.584093
717.868	75.809734
718.076	75.863668
718.284	75.893844
718.493	75.901468
718.701	75.854753
718.909	76.077334
719.118	76.338509
719.326	76.349567
719.534	76.159268
719.742	75.772211
719.951	75.500433
720.159	75.153850
720.367	74.949346
720.575	74.901412
720.783	74.861653
720.991	74.859582
721.199	74.739044
721.408	74.573360
721.616	74.803010
721.824	75.113308
722.032	75.079707
722.240	74.921011
722.448	74.917603
722.656	74.964807
722.864	74.856831
723.072	74.692204
723.280	74.530324
723.487	74.040044
723.695	73.577922
723.903	73.077677
724.111	72.574348
724.319	72.368464
724.527	72.327791
724.735	72.542252
724.942	72.732844
725.150	72.713381
725.358	72.661543
725.566	72.801593
725.773	73.326974
725.981	73.652831
726.189	73.645063
726.396	73.748766
726.604	73.860564
726.812	73.690906
727.019	73.106971
727.227	72.360383
727.435	71.989483
727.642	72.070121
727.850	72.082275
728.057	71.762864
728.265	71.452066
728.472	71.355944
728.680	71.107374
728.887	70.792598
729.095	70.689000
729.302	70.759466
729.509	70.964599
729.717	71.206035
729.924	71.339607
730.132	71.258480
730.339	71.293058
730.546	71.496534
730.753	71.458143
730.961	71.409087
731.168	71.424030
731.375	71.244861
731.583	71.003411
731.790	70.980349
731.997	71.163187
732.204	71.195977
732.411	71.261178
732.618	71.184900
732.826	70.983641
733.033	71.048639
733.240	71.207957
733.447	71.373451
733.654	71.620480
733.861	71.791078
734.068	71.723033
734.275	71.315411
734.482	70.859509
734.689	70.492069
734.896	70.313397
735.103	70.132579
735.310	69.790761
735.517	69.516383
735.724	69.434463
735.931	69.657811
736.137	69.947693
736.344	70.092012
736.551	70.017349
736.758	69.820032
736.965	69.791548
737.171	69.915071
737.378	70.088671
737.585	70.279031
737.792	70.560958
737.998	70.924328
738.205	70.928431
738.412	70.479824
738.618	70.074353
738.825	70.121501
739.032	70.442161
739.238	70.748144
739.445	70.863677
739.651	70.677479
739.858	70.431562
740.064	69.885568
740.271	69.032092
740.477	68.452834
740.684	68.310004
740.890	68.128443
741.097	67.673643
741.303	67.062504
741.510	66.502491
741.716	66.065160
741.922	65.815653
742.129	65.553995
742.335	65.431075
742.541	65.318524
742.748	65.140422
742.954	65.220197
743.160	65.338691
743.366	65.405371
743.573	65.400930
743.779	65.332662
743.985	65.390775
744.191	65.607551
744.397	65.990996
744.604	66.100934
744.810	66.113689
745.016	66.284409
745.222	66.331588
745.428	66.517582
745.634	66.825850
745.840	67.241191
746.046	67.545464
746.252	67.583760
746.458	67.366163
746.664	66.991930
746.870	66.699150
747.076	66.210144
747.282	65.658455
747.488	65.469216
747.694	65.440644
747.900	65.533116
748.105	65.656057
748.311	65.667311
748.517	65.632540
748.723	65.705758
748.929	65.617003
749.134	65.358866
749.340	65.248854
749.546	65.031976
749.752	64.450979
749.957	63.713201
750.163	63.018455
750.369	62.331317
750.574	61.807707
750.780	61.416637
750.985	60.892057
751.191	60.609990
751.397	60.786301
751.602	61.125801
751.808	61.372626
752.013	61.571571
752.219	61.672669
752.424	61.492931
752.630	61.159627
752.835	60.843097
753.041	60.678703
753.246	60.743083
753.451	60.751384
753.657	60.758463
753.862	60.784299
754.067	60.613834
754.273	60.415279
754.478	60.320888
754.683	60.214210
754.889	60.186602
755.094	60.163083
755.299	59.940819
755.504	59.544342
755.710	59.078038
755.915	58.519015
756.120	57.749285
756.325	57.174664
756.530	56.542377
756.735	55.844542
756.940	55.381890
757.146	55.119584
757.351	54.877429
757.556	54.808048
757.761	54.919104
757.966	55.196569
758.171	55.317194
758.376	55.439815
758.581	55.420749
758.786	55.389935
758.990	55.470388
759.195	55.499685
759.400	55.410284
759.605	55.137108
759.810	54.701783
760.015	54.260939
760.220	53.702655
760.424	53.372685
760.629	53.108002
760.834	52.867595
761.039	52.854151
761.244	52.790008
761.448	52.611639
761.653	52.325432
761.858	52.040082
762.062	51.698678
762.267	51.403538
762.472	51.281193
762.676	51.264024
762.881	51.400020
763.085	51.543145
763.290	51.456378
763.494	51.150027
763.699	50.732125
763.903	50.320669
764.108	50.067952
764.312	49.956697
764.517	49.760211
764.721	49.401003
764.926	48.845275
765.130	48.091524
765.335	47.526604
765.539	47.019357
765.743	46.675570
765.948	46.439196
766.152	46.121091
766.356	45.768457
766.560	45.517316
766.765	45.440735
766.969	45.357800
767.173	45.263748
767.377	45.328813
767.582	45.376737
767.786	45.355295
767.990	45.124486
768.194	44.912079
768.398	44.836307
768.602	44.695057
768.806	44.389837
769.010	43.960577
769.215	43.531636
769.419	43.154232
769.623	42.809832
769.827	42.259492
770.031	41.610645
770.234	41.059338
770.438	40.417786
770.642	39.907273
770.846	39.516328
771.050	39.071501
771.254	38.717363
771.458	38.521008
771.662	38.236646
771.866	37.857909
772.069	37.648041
772.273	37.544350
772.477	37.457444
772.681	37.407387
772.885	37.213622
773.088	36.877500
773.292	36.614533
773.496	36.171986
773.699	35.601730
773.903	35.185909
774.107	34.818732
774.310	34.382044
774.514	33.946923
774.717	33.681083
774.921	33.550645
775.124	33.514293
775.328	33.563585
775.531	33.576129
775.735	33.479251
775.938	33.324652
776.142	32.813380
776.345	32.312704
776.549	31.984368
776.752	31.704722
776.956	31.265226
777.159	30.793710
777.362	30.157519
777.566	29.427708
777.769	28.785135
777.972	28.296615
778.176	27.885023
778.379	27.659595
778.582	27.440014
778.785	27.174447
778.989	26.836406
779.192	26.457370
779.395	26.095100
779.598	25.795347
779.801	25.538781
780.004	25.036829
780.207	24.545155
780.411	24.238232
780.614	24.131862
780.817	23.962452
781.020	23.642128
781.223	23.263385
781.426	22.953135
781.629	22.619754
781.832	22.298264
782.035	21.966462
782.238	21.747794
782.440	21.599803
782.643	21.331352
782.846	20.891018
783.049	20.394092
783.252	19.954855
783.455	19.618047
783.658	19.352702
783.860	19.121225
784.063	18.813083
784.266	18.656633
784.469	18.504759
784.671	18.278861
784.874	18.108965
785.077	17.996328
785.279	17.926617
785.482	17.863431
785.685	17.877359
785.887	17.803875
786.090	17.560387
786.293	17.306644
786.495	17.030448
786.698	16.745901
786.900	16.479955
787.103	16.126436
787.305	15.755976
787.508	15.548337
787.710	15.261331
787.913	14.842378
788.115	14.466264
788.317	14.216259
788.520	14.131906
788.722	13.983141
788.924	13.825971
789.127	13.678910
789.329	13.555369
789.531	13.365518
789.734	13.178961
789.936	13.100469
790.138	12.967949
790.340	12.805886
790.543	12.703077
790.745	12.519261
790.947	12.309967
791.149	12.138174
791.351	11.935018
791.553	11.711363
791.756	11.588124
791.958	11.356175
792.160	11.138271
792.362	10.991727
792.564	10.932605
792.766	10.822276
792.968	10.694346
793.170	10.624698
793.372	10.587713
793.574	10.505785
793.776	10.554628
793.978	10.530615
794.180	10.524321
794.381	10.579622
794.583	10.670972
794.785	10.694958
794.987	10.672968
795.189	10.749532
795.391	10.778976
795.592	10.806690
795.794	10.821123
795.996	10.759172
796.198	10.747441
796.399	10.818486
796.601	10.780445
796.803	10.732526
797.004	10.786982
797.206	10.869345
797.407	10.793150
797.609	10.736784
797.811	10.746640
798.012	10.834442
798.214	10.963375
798.415	11.050438
798.617	11.027229
798.818	11.057605
799.020	11.096579
799.221	11.044237
799.423	11.035409
799.624	11.097752
799.826	11.215511
800.027	11.409036
800.228	11.590787
800.430	11.708943
800.631	11.853640
800.832	11.953620
801.034	12.052149
801.235	12.289532
801.436	12.518687
801.637	12.733086
801.839	13.013624
802.040	13.189249
802.241	13.132868
802.442	13.227910
802.643	13.225666
802.844	13.287664
803.046	13.440769
803.247	13.583404
803.448	13.633250
803.649	13.787511
803.850	13.911369
804.051	14.109333
804.252	14.340386
804.453	14.707257
804.654	14.930256
804.855	15.265463
805.056	15.554310
805.257	15.857826
805.458	16.136646
805.659	16.317254
805.859	16.479684
806.060	16.687119
806.261	16.846672
806.462	16.869710
806.663	16.980009
806.864	17.174956
807.064	17.364809
807.265	17.576264
807.466	17.707688
807.667	17.808287
807.867	18.128050
808.068	18.572357
808.269	18.807390
808.469	18.996177
808.670	19.378188
808.870	19.651119
809.071	19.810815
809.272	19.880813
809.472	20.004095
809.673	20.345376
809.873	20.619910
810.074	20.760084
810.274	20.772770
810.475	21.037857
810.675	21.313836
810.876	21.546004
811.076	21.747337
811.276	22.027185
811.477	22.494733
811.677	22.823821
811.878	22.932184
812.078	23.161756
812.278	23.402995
812.479	23.740744
812.679	23.926422
812.879	24.119395
813.079	24.305806
813.280	24.554909
813.480	24.685867
813.680	24.740089
813.880	25.007396
814.080	25.412644
814.280	25.814323
814.480	26.196897
814.681	26.398337
814.881	26.773557
815.081	27.150368
815.281	27.601657
815.481	28.018842
815.681	28.492681
815.881	28.798759
816.081	29.004291
816.281	29.023106
816.481	29.111759
816.681	29.296672
816.880	29.616180
817.080	29.842348
817.280	30.006913
817.480	30.121628
817.680	30.324095
817.880	30.541769
818.080	30.880924
818.279	31.002888
818.479	31.331353
818.679	31.677580
818.879	31.959865
819.078	32.007679
819.278	31.892461
819.478	31.972315
819.677	32.160486
819.877	32.437161
820.077	32.750479
820.276	33.010220
820.476	33.515707
820.675	34.016757
820.875	34.379926
821.074	34.748963
821.274	35.188106
821.473	35.703322
821.673	36.154458
821.872	36.589918
822.072	36.818479
822.271	36.809965
822.471	36.888329
822.670	36.899115
822.869	36.794344
823.069	36.984235
823.268	37.266412
823.467	37.687405
823.667	38.178759
823.866	38.499670
824.065	38.661179
824.265	38.830381
824.464	39.277758
824.663	39.715880
824.862	40.198220
825.061	40.805834
825.261	41.000314
825.460	41.066553
825.659	41.030906
825.858	40.899253
826.057	40.874238
826.256	40.957463
826.455	41.129747
826.654	41.375773
826.853	41.646376
827.052	41.712210
827.251	41.618757
827.450	41.698867
827.649	41.674571
827.848	41.702929
828.047	41.807106
828.246	41.905357
828.445	41.893499
828.644	41.985128
828.843	42.035999
829.041	42.075743
829.240	42.546232
829.439	42.891642
829.638	42.943543
829.836	43.034105
830.035	43.282990
830.234	43.591279
830.433	44.056224
830.631	44.671247
830.830	45.219090
831.029	45.760586
831.227	46.266602
831.426	46.457227
831.624	46.705018
831.823	47.255292
832.022	47.943895
832.220	48.458640
832.419	48.751386
832.617	48.746689
832.816	48.734939
833.014	48.768949
833.213	48.741162
833.411	48.727053
833.609	48.781527
833.808	48.670410
834.006	48.461182
834.205	48.267969
834.403	48.322068
834.601	48.726024
834.800	49.338788
834.998	49.689720
835.196	49.666913
835.394	49.464262
835.593	49.213588
835.791	49.094856
835.989	49.375972
836.187	49.840929
836.385	50.336035
836.584	50.324235
836.782	50.111445
836.980	49.938910
837.178	50.070340
837.376	50.275833
837.574	50.523666
837.772	50.940146
837.970	51.308155
838.168	51.652289
838.366	51.957548
838.564	52.136828
838.762	52.590289
838.960	52.872175
839.158	52.959417
839.356	53.022776
839.554	53.466920
839.752	54.026197
839.949	54.584027
840.147	55.018822
840.345	55.120349
840.543	55.073562
840.741	55.138198
840.938	55.137109
841.136	55.381902
841.334	55.696873
841.532	55.802832
841.729	55.544322
841.927	55.170088
842.125	54.911214
842.322	54.711010
842.520	54.648492
842.718	54.727877
842.915	54.671670
843.113	54.823550
843.310	55.011132
843.508	55.153890
843.705	55.162982
843.903	55.130314
844.100	55.286406
844.298	55.451577
844.495	55.664480
844.693	56.128876
844.890	56.716022
845.087	57.313472
845.285	57.478274
845.482	57.390451
845.679	57.328443
845.877	57.326491
846.074	57.403871
846.271	57.356413
846.469	57.068849
846.666	56.934672
846.863	56.559528
847.060	56.281062
847.257	56.226390
847.455	56.340816
847.652	56.506813
847.849	56.499043
848.046	56.561633
848.243	56.959547
848.440	57.492218
848.637	58.282232
848.834	58.718324
849.031	59.044181
849.228	59.178117
849.425	59.193458
849.622	59.300670
849.819	59.676450
850.016	59.988551
850.213	60.232085
850.410	60.220444
850.607	60.475265
850.804	60.599835
851.001	60.580219
851.198	60.885511
851.394	60.982886
851.591	61.035842
851.788	61.495275
851.985	61.634238
852.181	61.787353
852.378	62.027878
852.575	62.248519
852.772	62.131287
852.968	61.908752
853.165	61.987238
853.362	61.877613
853.558	62.072153
853.755	62.331826
853.951	62.243145
854.148	62.298273
854.345	62.507780
854.541	62.940843
854.738	63.473170
854.934	63.750552
855.131	63.859655
855.327	64.082344
855.523	64.478073
855.720	64.756146
855.916	64.714371
856.113	64.240291
856.309	63.929093
856.505	63.879471
856.702	63.758963
856.898	63.418305
857.094	63.391505
857.291	63.320171
857.487	62.958309
857.683	62.649848
857.879	62.207262
858.076	61.830971
858.272	61.842044
858.468	61.686556
858.664	61.315463
858.860	61.009064
859.056	61.012832
859.253	60.854921
859.449	61.115145
859.645	61.567783
859.841	61.508070
860.037	61.250605
860.233	61.212392
860.429	61.163610
860.625	61.127740
860.821	61.353839
861.017	61.648223
861.213	61.563839
861.409	61.439511
861.604	61.231285
861.800	61.102146
861.996	61.232101
862.192	61.454406
862.388	61.510193
862.584	61.674530
862.779	61.908044
862.975	62.199845
863.171	62.123688
863.367	62.274594
863.562	62.771917
863.758	63.117713
863.954	63.113254
864.149	63.023932
864.345	63.083550
864.541	63.100901
864.736	63.243207
864.932	63.478045
865.127	63.682686
865.323	63.953042
865.518	64.200937
865.714	64.180474
865.910	64.025948
866.105	64.354206
866.300	64.918481
866.496	65.252395
866.691	65.528293
866.887	65.617885
867.082	65.642150
867.277	65.410808
867.473	65.077860
867.668	64.931704
867.864	64.858777
868.059	64.721619
868.254	64.127024
868.449	63.676567
868.645	63.714726
868.840	63.985953
869.035	64.409217
869.230	64.878313
869.425	65.339103
869.621	65.928779
869.816	66.273806
870.011	66.654293
870.206	67.250549
870.401	67.888125
870.596	68.355862
870.791	68.621681
870.986	68.802330
871.181	68.572794
871.376	68.174913
871.571	67.499475
871.766	66.715881
871.961	65.950727
872.156	65.136990
872.351	64.569170
872.546	64.352158
872.741	63.926146
872.936	63.621787
873.130	63.427883
873.325	63.375427
873.520	63.616885
873.715	63.936502
873.910	64.395610
874.104	65.011597
874.299	65.833448
874.494	66.401807
874.688	66.917722
874.883	67.521362
875.078	67.966587
875.272	68.088432
875.467	68.194818
875.662	68.240963
875.856	68.535668
876.051	68.581695
876.245	68.575569
876.440	68.481745
876.634	68.676205
876.829	68.618415
877.023	68.579352
877.218	68.872570
877.412	69.402314
877.607	69.943474
877.801	70.209821
877.995	70.188029
878.190	70.047867
878.384	69.766185
878.578	69.456034
878.773	69.011065
878.967	68.458232
879.161	68.167028
879.356	67.713317
879.550	67.354278
879.744	66.890546
879.938	66.144992
880.133	65.797290
880.327	65.928959
880.521	66.037357
880.715	66.299171
880.909	66.243140
881.103	66.358464
881.297	66.351276
881.491	66.465678
881.685	66.497173
881.880	66.316119
882.073	66.472324
882.267	66.396149
882.461	66.193714
882.655	66.306273
882.849	66.751396
883.043	67.302752
883.237	67.845917
883.431	68.463766
883.625	68.923486
883.819	69.073403
884.013	69.357031
884.206	69.580256
884.400	69.786006
884.594	69.917377
884.788	69.674920
884.982	69.012827
885.175	68.981329
885.369	69.083417
885.563	68.908539
885.756	68.575650
885.950	68.467427
886.144	68.550672
886.337	68.605715
886.531	68.768616
886.724	69.274394
886.918	69.937184
887.112	70.320043
887.305	70.167054
887.499	70.056220
887.692	70.294021
887.885	70.740331
888.079	71.228132
888.272	71.412883
888.466	71.476099
888.659	71.837220
888.853	72.178810
889.046	72.333990
889.239	72.306682
889.433	72.117411
889.626	72.021024
889.819	71.671498
890.013	70.995702
890.206	70.506397
890.399	70.244116
890.592	70.125123
890.785	69.722115
890.979	68.997893
891.172	68.461729
891.365	68.049579
891.558	67.422558
891.751	66.429233
891.944	65.774254
892.137	65.593440
892.330	65.053144
892.524	65.040027
892.717	65.289764
892.910	65.737036
893.103	66.530971
893.296	67.685685
893.488	68.913146
893.681	70.064521
893.874	71.121877
894.067	71.570219
894.260	71.543293
894.453	71.757024
894.646	71.524699
894.839	71.330911
895.031	70.886002
895.224	70.336055
895.417	69.459438
895.610	68.872927
895.802	68.642433
895.995	68.584847
896.188	69.109986
896.381	69.749336
896.573	70.340387
896.766	70.795507
896.958	70.799294
897.151	71.216706
897.344	71.603722
897.536	71.691397
897.729	71.825585
897.921	72.200524
898.114	73.182517
898.306	73.713552
898.499	74.229097
898.691	74.747606
898.884	75.247368
899.076	75.851476
899.269	76.241253
899.461	76.627251
899.653	76.950248
899.846	77.073215
900.038	77.073213
900.230	76.238209
900.423	75.268836
900.615	74.425525
900.807	74.057989
901.000	74.057616
901.192	74.051028
901.384	73.907786
901.576	73.808194
901.768	74.283491
901.961	75.095523
902.153	75.527010
902.345	76.191825
902.537	77.010751
902.729	77.784500
902.921	78.113541
903.113	78.079634
903.305	77.999297
903.497	78.008157
903.689	77.670494
903.881	77.370813
904.073	76.967030
904.265	77.067723
904.457	77.427181
904.649	77.922337
904.841	77.963113
905.033	78.161190
905.224	78.851231
905.416	79.629601
905.608	80.034001
905.800	80.273424
905.992	79.828925
906.183	78.764333
906.375	77.577734
906.567	76.582178
906.759	75.551703
906.950	74.324401
907.142	73.117992
907.334	71.872530
907.525	70.888965
907.717	70.064330
907.909	69.782117
908.100	70.209700
908.292	70.875351
908.483	71.667681
908.675	71.797297
908.866	71.931252
909.058	72.593499
909.249	73.384549
909.441	73.824571
909.632	74.039910
909.824	74.010032
910.015	73.451358
910.206	72.810945
910.398	72.696954
910.589	72.559587
910.780	72.492905
910.972	72.657401
911.163	73.084380
911.354	73.338297
911.546	73.581378
911.737	73.761294
911.928	74.016701
912.119	74.361571
912.310	74.210740
912.502	73.948062
912.693	73.614123
912.884	73.740853
913.075	73.457713
913.266	73.065813
913.457	72.779473
913.648	72.588056
913.839	72.450508
914.030	72.607218
914.221	73.135158
914.412	74.249572
914.603	74.903115
914.794	75.272274
914.985	75.199996
915.176	75.130599
915.367	75.083525
915.558	74.843417
915.749	74.779731
915.940	75.053291
916.130	75.316101
916.321	75.181572
916.512	74.618756
916.703	74.562878
916.893	74.899331
917.084	75.257118
917.275	75.873513
917.466	76.078143
917.656	76.223228
917.847	76.538853
918.038	76.230750
918.228	75.641815
918.419	75.407891
918.609	75.446018
918.800	74.874714
918.990	73.802978
919.181	73.052197
919.372	72.586634
919.562	72.403984
919.753	72.600140
919.943	72.332731
920.133	72.387400
920.324	72.520770
920.514	72.720269
920.705	72.935440
920.895	73.065130
921.085	73.310353
921.276	74.029938
921.466	74.722866
921.656	75.433500
921.847	75.993621
922.037	76.657159
922.227	77.263801
922.417	78.065091
922.608	78.616883
922.798	79.044927
922.988	79.495122
923.178	79.644079
923.368	79.498472
923.558	79.306327
923.748	78.993287
923.939	78.560256
924.129	78.222230
924.319	77.759675
924.509	77.254403
924.699	76.773919
924.889	75.978292
925.079	75.574919
925.269	75.862627
925.459	75.766934
925.648	75.838655
925.838	76.266479
926.028	76.603062
926.218	77.124371
926.408	77.488757
926.598	77.667973
926.788	78.216291
926.977	79.036987
927.167	79.469250
927.357	79.554864
927.547	80.068885
927.736	80.279930
927.926	79.940531
928.116	79.770101
928.305	79.433006
928.495	79.339472
928.685	79.041853
928.874	78.750948
929.064	78.536402
929.253	78.957701
929.443	79.370361
929.633	79.591241
929.822	79.736808
930.012	80.084659
930.201	80.015994
930.391	79.914968
930.580	80.115295
930.769	80.623460
930.959	80.959193
931.148	81.354677
931.338	81.153566
931.527	81.216697
931.716	81.062690
931.906	80.696950
932.095	79.844918
932.284	79.545449
932.474	79.527476
932.663	79.226464
932.852	78.630813
933.041	77.855400
933.230	77.150515
933.420	76.634944
933.609	76.319630
933.798	76.447355
933.987	76.555927
934.176	76.985066
934.365	77.017679
934.554	76.715802
934.743	76.943889
934.932	77.635236
935.121	78.340480
935.310	78.639254
935.499	79.290562
935.688	79.661911
935.877	79.585972
936.066	79.821594
936.255	80.129510
936.444	80.472081
936.633	81.130948
936.822	81.464945
937.010	81.773146
937.199	81.940181
937.388	81.880565
937.577	81.855229
937.766	81.576871
937.954	81.483218
938.143	81.361870
938.332	81.266553
938.520	81.441264
938.709	81.283622
938.898	81.163255
939.086	81.018865
939.275	81.055018
939.464	81.646822
939.652	81.592098
939.841	81.868227
940.029	82.211516
940.218	82.313708
940.406	82.077522
940.595	81.705183
940.783	81.760133
940.972	81.798137
941.160	81.316893
941.349	81.175603
941.537	80.788339
941.725	80.841359
941.914	81.023893
942.102	81.010181
942.290	80.903640
942.479	80.959397
942.667	80.839891
942.855	80.313684
943.043	79.781227
943.232	80.107146
943.420	79.934900
943.608	79.712290
943.796	79.432573
943.984	78.842527
944.172	78.204590
944.361	78.093532
944.549	78.703694
944.737	79.581148
944.925	80.307751
945.113	81.316047
945.301	81.523632
945.489	81.612726
945.677	81.411748
945.865	81.229930
946.053	81.615893
946.241	81.937963
946.429	82.114780
946.617	81.496930
946.805	80.954877
946.992	81.144616
947.180	80.562351
947.368	80.211678
947.556	80.303376
947.744	80.719424
947.931	80.649300
948.119	80.421745
948.307	80.508960
948.495	80.784236
948.682	81.326810
948.870	81.697394
949.058	81.265080
949.245	80.948023
949.433	80.777809
949.621	79.881461
949.808	79.260603
949.996	79.393121
950.183	79.674936
950.371	80.004846
950.558	80.076891
950.746	80.499456
950.933	81.085242
951.121	81.768415
951.308	82.013943
951.496	82.002271
951.683	83.028488
951.870	84.182311
952.058	85.060386
952.245	85.218914
952.433	84.991994
952.620	84.549678
952.807	84.015665
952.994	83.652336
953.182	83.132738
953.369	83.367525
953.556	83.920280
953.743	83.579876
953.931	82.729112
954.118	81.490027
954.305	80.781399
954.492	80.430168
954.679	80.719261
954.866	80.476603
955.053	80.154576
955.240	80.385139
955.427	80.285678
955.615	80.319505
955.802	80.824283
955.989	81.117255
956.175	81.956072
956.362	82.091801
956.549	81.757832
956.736	80.562556
956.923	80.051961
957.110	79.413116
957.297	78.797285
957.484	78.493078
957.671	77.757029
957.857	77.081499
958.044	76.788511
958.231	76.272835
958.418	76.093711
958.604	76.313915
958.791	76.850020
958.978	76.849734
959.165	76.847752
959.351	76.950007
959.538	77.449754
959.724	78.036777
959.911	78.050740
960.098	78.801970
960.284	79.582726
960.471	80.328219
960.657	80.913701
960.844	81.544287
961.030	82.250617
961.217	82.868678
961.403	82.903883
961.590	82.373134
961.776	82.081480
961.963	83.436941
962.149	83.436285
962.335	83.446039
962.522	83.672118
962.708	83.009601
962.894	82.073075
963.081	81.424299
963.267	80.979864
963.453	80.673760
963.639	80.644951
963.826	80.482725
964.012	79.699876
964.198	79.500811
964.384	79.245870
964.570	78.098541
964.756	78.334872
964.943	79.176664
965.129	79.858568
965.315	79.724310
965.501	79.408352
965.687	78.894683
965.873	78.873681
966.059	78.655775
966.245	78.596890
966.431	79.006015
966.617	80.619872
966.803	81.266090
966.989	82.029797
967.174	82.551417
967.360	83.074302
967.546	84.010606
967.732	85.091993
967.918	86.125952
968.104	86.862586
968.289	87.372213
968.475	87.476466
968.661	86.879721
968.847	86.622763
969.032	85.780465
969.218	85.126077
969.404	84.983439
969.589	85.215146
969.775	84.910716
969.961	83.985107
970.146	82.944240
970.332	81.988744
970.517	80.740848
970.703	79.764134
970.888	78.714768
971.074	78.454575
971.260	78.434311
971.445	78.708189
971.630	78.568881
971.816	79.095001
972.001	79.835753
972.187	80.860286
972.372	81.672123
972.557	82.515794
972.743	83.198633
972.928	83.842861
973.113	83.650245
973.299	83.621807
973.484	83.421044
973.669	82.881743
973.854	82.268544
974.040	81.759020
974.225	81.095364
974.410	81.081019
974.595	81.337390
974.780	81.926829
974.965	82.249844
975.151	82.715842
975.336	83.074531
975.521	83.551980
975.706	84.475021
975.891	84.768124
976.076	84.735587
976.261	84.781043
976.446	83.898564
976.631	82.595876
976.816	81.540697
977.001	81.915992
977.186	82.244326
977.370	82.462685
977.555	82.715467
977.740	83.087879
977.925	83.536585
978.110	84.314983
978.295	84.161212
978.479	84.678121
978.664	86.004420
978.849	86.689587
979.034	86.787999
979.218	86.789852
979.403	87.099947
979.588	87.165664
979.772	86.956411
979.957	87.069219
980.141	86.707566
980.326	87.544217
980.511	88.504371
980.695	89.223070
980.880	89.332903
981.064	88.883485
981.249	88.437080
981.433	87.919800
981.618	87.260257
981.802	87.246528
981.987	86.873123
982.171	86.703807
982.355	86.212285
982.540	85.674837
982.724	84.762161
982.908	84.515773
983.093	84.623009
983.277	85.717913
983.461	86.343299
983.646	87.009723
983.830	86.615153
984.014	86.881025
984.198	86.988201
984.382	86.962802
984.567	87.039103
984.751	87.053763
984.935	87.245044
985.119	87.316258
985.303	86.532745
985.487	85.161361
985.671	83.836379
985.855	83.728721
986.039	83.282934
986.223	83.322743
986.407	83.305139
986.591	82.924239
986.775	83.047611
986.959	83.791061
987.143	83.581216
987.327	83.318711
987.511	83.942872
987.695	85.044338
987.879	85.355107
988.062	85.808036
988.246	85.932761
988.430	85.834359
988.614	85.847728
988.797	85.346025
988.981	84.400390
989.165	84.052221
989.349	83.516265
989.532	83.145261
989.716	82.793121
989.900	82.020802
990.083	81.396696
990.267	81.347532
990.450	81.628727
990.634	82.070591
990.817	83.433028
991.001	84.781724
991.184	85.449622
991.368	86.216763
991.551	87.283316
991.735	88.317710
991.918	89.656295
992.102	90.337301
992.285	90.120700
992.469	89.155177
992.652	88.462701
992.835	87.845083
993.019	86.582399
993.202	86.502444
993.385	86.532948
993.568	86.500986
993.752	86.683682
993.935	87.154206
994.118	87.470606
994.301	88.409199
994.484	90.094388
994.668	91.137146
994.851	90.835504
995.034	90.888034
995.217	90.670165
995.400	91.003526
995.583	90.807409
995.766	90.192822
995.949	89.387767
996.132	89.827754
996.315	90.272487
996.498	89.417957
996.681	89.052936
996.864	88.963274
997.047	88.782238
997.230	88.484414
997.413	88.299033
997.596	88.145748
997.778	87.464158
997.961	86.867492
998.144	86.239271
998.327	85.805747
998.510	86.377286
998.692	86.785219
998.875	87.089407
999.058	88.361915
999.241	89.575098
999.423	89.523029
999.606	89.763281
999.789	90.513320
999.971	91.159698
1000.154	91.160435
1000.336	90.621811
1000.519	90.622987
1000.701	90.577448
1000.884	90.653450
1001.067	90.587243
1001.249	89.853517
1001.431	89.670252
1001.614	88.854308
1001.796	89.030246
1001.979	89.233695
1002.161	89.034036
1002.344	90.031350
1002.526	89.711402
1002.708	89.207786
1002.891	89.402431
1003.073	89.182149
1003.255	90.128993
1003.438	90.737137
1003.620	91.563059
1003.802	91.895405
1003.984	91.674362
1004.166	91.352916
1004.349	90.717586
1004.531	91.265852
1004.713	91.393795
1004.895	90.476852
1005.077	89.414920
1005.259	88.898049
1005.441	89.280216
1005.623	88.461736
1005.805	87.020255
1005.987	86.824444
1006.169	87.809744
1006.351	87.334574
1006.533	86.766677
1006.715	86.458186
1006.897	86.826246
1007.079	87.270785
1007.261	86.645887
1007.443	86.156461
1007.625	86.844479
1007.806	88.132626
1007.988	88.079877
1008.170	87.857821
1008.352	88.587951
1008.534	88.372359
1008.715	88.917173
1008.897	90.065709
1009.079	91.182256
1009.260	92.996741
1009.442	93.988663
1009.624	94.298093
1009.805	93.406884
1009.987	93.588624
1010.169	92.983964
1010.350	91.858340
1010.532	91.961809
1010.713	91.905150
1010.895	91.821658
1011.076	92.108115
1011.258	92.137349
1011.439	91.545869
1011.621	91.199534
1011.802	91.624657
1011.983	92.164415
1012.165	92.275322
1012.346	93.087817
1012.527	93.440389
1012.709	93.454055
1012.890	92.138898
1013.071	90.347816
1013.253	88.042522
1013.434	87.369567
1013.615	86.766432
1013.796	86.754422
1013.978	86.005978
1014.159	85.514870
1014.340	85.844044
1014.521	86.008863
1014.702	85.808594
1014.883	85.850552
1015.064	86.757967
1015.245	87.578347
1015.427	87.349852
1015.608	87.666216
1015.789	88.267241
1015.970	89.394637
1016.151	89.828766
1016.332	88.886947
1016.512	88.174425
1016.693	87.829647
1016.874	88.385510
1017.055	87.916478
1017.236	87.831287
1017.417	87.935948
1017.598	87.492605
1017.779	86.820979
1017.959	85.801327
1018.140	85.874888
1018.321	86.063874
1018.502	87.037248
1018.682	87.869111
1018.863	88.213224
1019.044	88.291197
1019.224	88.903423
1019.405	89.897262
1019.586	90.927539
1019.766	91.500758
1019.947	91.746540
1020.127	91.456590
1020.308	91.406455
1020.488	91.135571
1020.669	91.031982
1020.849	91.588366
1021.030	92.478538
1021.210	92.596145
1021.391	92.596657
1021.571	92.113327
1021.752	91.340901
1021.932	91.309467
1022.112	91.909711
1022.293	91.775941
1022.473	91.108944
1022.653	91.484075
1022.834	91.245526
1023.014	91.177776
1023.194	91.363153
1023.374	91.362592
1023.555	92.248223
1023.735	92.650635
1023.915	92.673951
1024.095	92.513142
1024.275	93.610188
1024.455	94.662948
1024.635	94.521434
1024.816	93.865125
1024.996	92.802268
1025.176	92.504872
1025.356	91.852233
1025.536	91.554378
1025.716	91.578106
1025.896	91.972928
1026.076	90.998222
1026.256	89.638379
1026.436	89.133508
1026.615	88.326247
1026.795	87.718892
1026.975	88.121308
1027.155	88.605399
1027.335	89.250902
1027.515	89.241686
1027.695	89.993235
1027.874	90.028697
1028.054	91.550132
1028.234	92.916090
1028.413	93.433599
1028.593	93.514622
1028.773	94.117531
1028.953	94.443600
1029.132	93.963748
1029.312	94.180267
1029.491	94.730754
1029.671	94.535012
1029.851	94.100377
1030.030	93.127117
1030.210	92.398937
1030.389	91.563663
1030.569	91.051272
1030.748	90.597239
1030.928	89.600847
1031.107	90.093060
1031.286	90.182352
1031.466	89.476251
1031.645	88.625842
1031.825	88.447587
1032.004	89.533688
1032.183	90.449522
1032.363	90.765776
1032.542	92.098464
1032.721	93.102850
1032.900	94.162037
1033.080	94.474393
1033.259	93.879329
1033.438	94.490392
1033.617	94.840484
1033.796	94.790308
1033.975	93.006653
1034.155	92.285504
1034.334	91.880636
1034.513	90.490399
1034.692	90.458774
1034.871	90.523657
1035.050	89.552165
1035.229	89.611048
1035.408	88.199658
1035.587	87.610849
1035.766	88.666804
1035.945	90.098940
1036.124	90.639212
1036.303	92.259986
1036.481	94.691165
1036.660	94.390757
1036.839	94.342482
1037.018	94.502113
1037.197	94.416000
1037.376	94.396197
1037.554	94.804100
1037.733	94.169199
1037.912	93.933657
1038.091	93.139373
1038.269	91.410885
1038.448	88.484335
1038.627	87.458570
1038.805	86.062483
1038.984	85.691703
1039.162	85.266762
1039.341	84.980968
1039.520	84.888631
1039.698	84.051007
1039.877	83.187688
1040.055	83.305289
1040.234	83.910762
1040.412	85.039223
1040.591	85.538238
1040.769	86.550972
1040.947	88.136334
1041.126	88.079911
1041.304	88.598573
1041.483	88.666069
1041.661	89.561220
1041.839	90.386941
1042.017	90.325744
1042.196	90.505193
1042.374	91.014605
1042.552	91.414262
1042.730	91.435755
1042.909	90.102054
1043.087	90.846106
1043.265	91.246027
1043.443	91.128876
1043.621	91.218983
1043.799	91.257464
1043.978	91.776011
1044.156	91.986387
1044.334	91.851629
1044.512	91.402080
1044.690	91.100091
1044.868	91.387839
1045.046	89.866527
1045.224	89.012871
1045.402	88.059341
1045.580	87.093438
1045.758	86.614312
1045.935	86.134035
1046.113	85.633206
1046.291	85.851491
1046.469	85.874769
1046.647	85.871718
1046.825	85.012621
1047.002	85.982763
1047.180	86.620613
1047.358	87.785166
1047.536	88.111157
1047.713	88.666982
1047.891	87.964758
1048.069	87.615863
1048.246	87.136209
1048.424	87.003569
1048.602	86.591285
1048.779	86.737606
1048.957	86.341571
1049.134	87.128822
1049.312	87.756662
1049.489	88.498921
1049.667	87.826290
1049.844	88.349069
1050.022	88.671242
1050.199	89.302472
1050.377	89.742764
1050.554	90.125822
1050.731	90.242556
1050.909	90.766789
1051.086	90.291152
1051.263	89.559899
1051.441	89.813982
1051.618	89.989739
1051.795	89.892629
1051.973	90.015544
1052.150	88.814414
1052.327	87.987051
1052.504	87.709579
1052.681	87.694877
1052.859	87.077761
1053.036	86.701572
1053.213	86.498901
1053.390	85.657879
1053.567	85.934042
1053.744	86.468892
1053.921	86.680494
1054.098	87.949483
1054.275	88.694845
1054.452	88.735543
1054.629	88.888128
1054.806	89.491714
1054.983	89.289550
1055.160	90.001979
1055.337	90.508821
1055.514	90.513101
1055.691	89.967407
1055.868	89.674069
1056.044	89.360031
1056.221	89.867250
1056.398	90.853688
1056.575	91.091743
1056.751	91.122235
1056.928	91.365120
1057.105	90.219940
1057.282	89.495274
1057.458	89.139695
1057.635	89.865655
1057.812	90.256374
1057.988	90.249964
1058.165	90.140790
1058.341	89.466843
1058.518	89.591770
1058.694	88.951092
1058.871	88.768136
1059.047	89.359746
1059.224	89.301777
1059.401	89.163877
1059.577	88.398884
1059.753	87.802351
1059.930	87.165302
1060.106	86.230405
1060.282	85.892816
1060.459	84.951944
1060.635	84.882859
1060.812	84.695203
1060.988	84.994340
1061.164	85.265753
1061.340	85.345398
1061.517	84.706536
1061.693	84.197418
1061.869	84.034064
1062.045	84.169222
1062.221	83.692380
1062.398	84.376954
1062.574	85.713031
1062.750	86.658112
1062.926	86.369703
1063.102	86.980779
1063.278	87.466063
1063.454	88.220074
1063.630	88.747469
1063.806	89.703198
1063.982	89.817037
1064.158	90.200653
1064.334	90.235871
1064.510	88.780132
1064.686	88.141914
1064.862	88.077374
1065.038	87.235097
1065.214	86.413311
1065.389	86.365922
1065.565	85.866407
1065.741	85.061104
1065.917	84.886419
1066.093	84.912317
1066.268	84.655252
1066.444	84.686113
1066.620	84.802929
1066.795	85.010701
1066.971	85.332251
1067.147	85.614932
1067.322	85.615254
1067.498	85.395776
1067.673	85.738922
1067.849	85.610074
1068.025	85.524769
1068.200	86.111583
1068.376	86.731832
1068.551	86.478869
1068.727	86.096082
1068.902	85.882043
1069.078	85.807450
1069.253	85.360930
1069.428	86.054489
1069.604	85.651441
1069.779	85.133793
1069.954	85.162854
1070.130	84.607642
1070.305	84.537961
1070.480	84.242135
1070.656	83.879121
1070.831	83.607783
1071.006	83.625184
1071.181	83.955492
1071.357	84.073224
1071.532	83.726448
1071.707	83.876274
1071.882	83.629363
1072.057	83.247800
1072.232	82.691238
1072.407	83.024801
1072.582	83.244337
1072.757	83.674634
1072.932	83.190328
1073.107	82.785479
1073.282	81.681860
1073.457	81.350239
1073.632	80.947498
1073.807	80.533990
1073.982	80.573375
1074.157	80.714421
1074.332	79.391792
1074.507	78.542565
1074.682	77.776868
1074.856	77.914387
1075.031	77.534416
1075.206	77.853227
1075.381	77.744774
1075.556	78.229197
1075.730	78.930320
1075.905	79.271218
1076.080	79.470028
1076.254	81.482923
1076.429	82.429518
1076.604	82.278640
1076.778	82.641657
1076.953	83.975427
1077.127	85.188822
1077.302	86.179230
1077.477	86.210129
1077.651	86.427882
1077.826	86.214666
1078.000	85.244358
1078.175	83.771709
1078.349	83.302167
1078.523	83.527469
1078.698	82.800498
1078.872	82.196546
1079.047	80.977022
1079.221	80.766997
1079.395	80.551584
1079.570	80.101171
1079.744	79.807629
1079.918	80.038940
1080.092	80.349267
1080.267	80.931162
1080.441	81.916462
1080.615	83.040698
1080.789	82.811497
1080.963	82.895474
1081.137	82.720360
1081.312	83.767805
1081.486	85.037527
1081.660	85.596947
1081.834	86.415892
1082.008	86.813779
1082.182	85.897186
1082.356	84.790911
1082.530	84.170654
1082.704	83.734862
1082.878	83.534256
1083.052	83.211328
1083.226	82.401434
1083.400	81.018340
1083.573	80.084757
1083.747	79.242138
1083.921	78.501860
1084.095	78.568234
1084.269	79.360081
1084.443	79.719657
1084.616	80.066196
1084.790	79.933850
1084.964	80.369648
1085.138	80.959796
1085.311	80.980998
1085.485	80.604345
1085.659	80.333714
1085.832	80.237374
1086.006	80.132268
1086.179	79.226184
1086.353	78.675243
1086.527	78.593222
1086.700	78.855838
1086.874	78.330789
1087.047	77.395313
1087.221	76.865276
1087.394	77.424176
1087.568	78.157027
1087.741	78.425821
1087.914	78.338765
1088.088	78.199581
1088.261	77.530380
1088.435	76.690266
1088.608	75.426944
1088.781	75.068506
1088.954	75.244656
1089.128	75.767334
1089.301	75.950406
1089.474	75.526634
1089.647	75.476074
1089.821	75.398819
1089.994	75.487666
1090.167	75.893901
1090.340	76.445603
1090.513	77.561456
1090.686	78.081605
1090.859	78.105359
1091.032	78.100248
1091.206	78.053693
1091.379	77.852901
1091.552	77.793596
1091.725	78.235695
1091.898	77.780006
1092.071	77.394356
1092.244	76.953248
1092.416	76.485946
1092.589	75.618510
1092.762	75.082312
1092.935	74.590895
1093.108	73.711347
1093.281	73.491532
1093.453	72.998187
1093.626	72.303528
1093.799	73.114597
1093.972	73.853370
1094.145	74.336211
1094.317	74.514213
1094.490	75.094286
1094.663	74.940182
1094.835	74.574183
1095.008	74.579960
1095.181	74.532941
1095.353	74.382663
1095.526	74.477225
1095.698	74.088810
1095.871	73.544701
1096.043	73.219988
1096.216	72.953610
1096.388	72.265806
1096.561	72.310142
1096.733	72.985483
1096.906	73.235021
1097.078	72.808863
1097.250	72.705477
1097.423	72.889906
1097.595	72.846783
1097.768	72.351614
1097.940	71.753339
1098.112	71.884546
1098.284	72.694415
1098.457	72.821434
1098.629	72.196046
1098.801	72.003264
1098.973	72.766311
1099.146	73.250903
1099.318	72.626289
1099.490	72.439098
1099.662	72.661302
1099.834	73.376181
1100.006	73.538217
1100.178	73.085420
1100.350	73.022575
1100.522	72.828673
1100.694	73.055522
1100.866	72.345690
1101.038	71.625946
1101.210	72.047711
1101.382	71.880262
1101.554	71.676481
1101.726	71.063929
1101.898	70.579611
1102.070	69.976379
1102.241	69.444157
1102.413	69.646295
1102.585	69.457481
1102.757	69.418762
1102.929	70.035318
1103.100	69.903395
1103.272	69.887934
1103.444	69.986149
1103.616	69.680359
1103.787	69.617941
1103.959	70.119829
1104.130	70.504438
1104.302	70.102293
1104.474	70.212042
1104.645	69.839919
1104.817	68.701988
1104.988	68.099323
1105.160	67.502290
1105.331	66.812322
1105.503	66.892028
1105.674	66.309254
1105.846	65.748084
1106.017	65.419059
1106.189	65.173713
1106.360	64.548219
1106.531	64.521980
1106.703	64.662915
1106.874	64.886847
1107.045	65.002435
1107.217	65.212761
1107.388	65.682492
1107.559	66.737108
1107.730	67.140327
1107.902	67.250418
1108.073	67.387971
1108.244	67.321651
1108.415	67.293521
1108.586	67.372881
1108.757	66.949291
1108.929	66.832513
1109.100	67.147034
1109.271	66.314899
1109.442	65.333031
1109.613	64.865603
1109.784	64.521968
1109.955	64.394210
1110.126	64.424576
1110.297	64.654587
1110.468	64.743540
1110.639	65.257604
1110.809	64.928814
1110.980	64.158051
1111.151	64.283335
1111.322	63.971282
1111.493	64.020058
1111.664	63.822558
1111.834	63.657416
1112.005	63.521687
1112.176	63.254459
1112.347	62.996365
1112.517	62.685101
1112.688	62.966786
1112.859	63.108078
1113.029	62.925961
1113.200	63.064880
1113.371	62.690163
1113.541	62.426687
1113.712	62.561093
1113.882	62.620455
1114.053	62.500027
1114.223	62.899838
1114.394	63.036742
1114.564	62.545903
1114.735	62.784791
1114.905	62.887680
1115.076	62.915238
1115.246	63.272648
1115.416	63.637920
1115.587	63.454886
1115.757	63.707738
1115.927	64.212465
1116.098	64.455578
1116.268	64.475237
1116.438	64.551841
1116.609	64.160824
1116.779	64.037929
1116.949	64.092213
1117.119	63.972465
1117.289	63.399697
1117.459	63.115163
1117.630	62.806990
1117.800	62.244645
1117.970	61.312909
1118.140	60.554992
1118.310	60.361586
1118.480	60.253578
1118.650	59.989883
1118.820	59.481683
1118.990	59.047089
1119.160	59.210902
1119.330	59.269758
1119.500	58.864837
1119.670	58.289555
1119.840	58.299117
1120.010	58.462193
1120.179	58.414790
1120.349	58.391975
1120.519	58.360798
1120.689	58.416484
1120.859	58.067934
1121.028	57.672697
1121.198	57.683871
1121.368	57.778916
1121.538	58.347376
1121.707	58.401522
1121.877	58.338999
1122.047	58.585284
1122.216	58.264554
1122.386	58.122950
1122.555	58.326306
1122.725	58.822253
1122.894	59.313463
1123.064	59.691225
1123.233	59.784912
1123.403	59.728247
1123.573	59.373905
1123.742	58.766702
1123.911	58.236460
1124.081	58.301542
1124.250	58.563147
1124.419	57.968160
1124.589	57.512842
1124.758	57.495660
1124.927	56.967305
1125.097	56.837226
1125.266	56.684283
1125.435	56.848396
1125.605	57.135431
1125.774	57.412153
1125.943	57.150004
1126.112	56.535451
1126.281	56.701537
1126.450	56.455143
1126.620	56.043924
1126.789	56.323658
1126.958	56.438046
1127.127	56.386758
1127.296	56.226704
1127.465	56.088911
1127.634	56.091626
1127.803	56.285280
1127.972	56.338487
1128.141	56.134215
1128.310	56.118901
1128.479	55.587572
1128.648	55.282477
1128.817	54.747845
1128.985	54.276702
1129.154	54.074791
1129.323	53.978619
1129.492	53.654243
1129.661	53.675762
1129.829	54.003000
1129.998	53.762504
1130.167	53.824575
1130.336	54.168946
1130.504	53.533787
1130.673	53.229120
1130.842	53.631758
1131.010	54.055687
1131.179	54.226942
1131.347	53.879389
1131.516	53.434494
1131.685	52.990900
1131.853	52.862231
1132.022	52.810497
1132.190	52.500043
1132.359	52.134247
1132.527	51.825710
1132.696	51.269046
1132.864	50.798092
1133.032	50.279435
1133.201	50.020269
1133.369	49.858997
1133.537	49.519462
1133.706	49.006865
1133.874	48.573580
1134.042	48.554671
1134.211	48.681186
1134.379	48.430324
1134.547	48.068422
1134.715	47.742895
1134.884	47.728621
1135.052	47.702123
1135.220	47.564466
1135.388	47.841089
1135.556	48.057416
1135.724	47.837284
1135.892	47.488434
1136.060	47.281741
1136.228	47.028068
1136.396	47.013909
1136.564	46.994130
1136.732	46.832536
1136.900	46.661240
1137.068	46.496852
1137.236	46.191449
1137.404	46.237535
1137.572	46.626403
1137.740	46.622242
1137.908	46.562775
1138.076	46.754222
1138.243	46.529020
1138.411	46.311747
1138.579	46.386703
1138.747	46.844465
1138.914	47.215867
1139.082	47.022802
1139.250	47.286411
1139.417	47.107564
1139.585	47.081707
1139.753	46.926874
1139.920	47.180061
1140.088	47.684243
1140.256	47.684097
1140.423	47.694801
1140.591	47.644248
1140.758	47.221708
1140.926	47.200035
1141.093	46.731712
1141.261	46.474405
1141.428	46.205678
1141.596	46.462272
1141.763	45.959002
1141.930	45.309466
1142.098	45.083353
1142.265	45.085509
1142.432	44.867015
1142.600	44.844934
1142.767	44.575089
1142.934	44.718405
1143.102	44.635525
1143.269	44.563395
1143.436	44.468693
1143.603	44.475559
1143.771	44.163609
1143.938	44.548162
1144.105	44.151582
1144.272	43.508441
1144.439	42.906541
1144.606	42.538067
1144.773	41.954394
1144.940	41.486728
1145.107	41.281132
1145.274	40.756073
1145.441	40.652088
1145.608	41.042390
1145.775	40.071459
1145.942	39.537146
1146.109	39.878351
1146.276	40.471434
1146.443	40.640294
1146.610	40.612809
1146.776	40.652120
1146.943	40.955483
1147.110	41.385940
1147.277	41.543187
1147.444	41.485091
1147.610	41.743093
1147.777	42.260758
1147.944	41.977078
1148.110	41.633429
1148.277	41.960605
1148.444	42.322484
1148.610	42.100573
1148.777	41.691338
1148.944	41.530261
1149.110	41.656341
1149.277	41.605492
1149.443	41.629500
1149.610	41.753656
1149.776	41.968507
1149.943	41.733388
1150.109	41.229449
1150.276	40.841515
1150.442	40.937572
1150.608	40.942833
1150.775	41.035760
1150.941	40.586693
1151.107	40.289159
1151.274	39.950566
1151.440	39.489858
1151.606	39.123455
1151.773	39.195351
1151.939	39.028270
1152.105	39.027177
1152.271	39.222041
1152.438	38.704659
1152.604	38.260854
1152.770	38.150065
1152.936	38.067133
1153.102	37.949822
1153.268	37.696932
1153.434	37.648620
1153.600	37.292387
1153.766	36.568673
1153.932	35.854520
1154.098	35.662474
1154.264	35.903121
1154.430	35.614784
1154.596	35.839947
1154.762	35.667297
1154.928	35.600698
1155.094	35.240611
1155.260	34.800844
1155.426	34.913568
1155.591	35.404691
1155.757	35.534933
1155.923	35.437698
1156.089	35.476207
1156.255	35.290838
1156.420	34.463110
1156.586	34.480066
1156.752	34.281629
1156.917	34.030156
1157.083	34.334440
1157.249	34.115855
1157.414	33.790046
1157.580	34.182880
1157.745	34.476719
1157.911	34.739833
1158.076	34.979680
1158.242	35.173520
1158.407	34.569560
1158.573	34.644475
1158.738	34.974265
1158.904	34.744121
1159.069	34.632561
1159.235	35.049970
1159.400	34.493003
1159.565	33.874019
1159.731	33.243019
1159.896	32.929055
1160.061	33.074165
1160.227	33.460417
1160.392	33.039299
1160.557	32.685412
1160.722	32.456868
1160.888	32.049777
1161.053	31.703100
1161.218	31.873052
1161.383	31.926813
1161.548	32.104632
1161.713	32.050034
1161.878	31.701320
1162.043	31.995949
1162.208	32.492993
1162.374	32.592620
1162.539	32.665997
1162.704	32.921281
1162.869	32.847988
1163.033	32.909834
1163.198	32.709984
1163.363	32.647227
1163.528	32.729163
1163.693	32.758737
1163.858	32.443286
1164.023	32.021111
1164.188	31.443866
1164.353	30.888332
1164.517	30.694558
1164.682	30.556644
1164.847	30.063399
1165.011	30.084948
1165.176	29.775328
1165.341	29.116292
1165.506	28.893065
1165.670	28.711004
1165.835	28.788494
1166.000	29.255267
1166.164	29.585190
1166.329	29.478759
1166.493	29.612125
1166.658	29.962070
1166.822	29.795702
1166.987	29.431465
1167.151	29.400268
1167.316	29.042612
1167.480	28.507620
1167.645	28.218225
1167.809	27.980159
1167.973	28.091984
1168.138	28.026234
1168.302	27.716032
1168.466	27.199275
1168.631	27.131912
1168.795	27.280982
1168.959	27.625822
1169.124	28.509651
1169.288	28.803516
1169.452	28.312559
1169.616	28.413638
1169.780	28.277167
1169.944	28.223643
1170.109	28.207355
1170.273	28.214938
1170.437	28.080258
1170.601	27.770206
1170.765	27.470826
1170.929	26.513315
1171.093	26.346513
1171.257	26.482435
1171.421	25.754739
1171.585	25.687723
1171.749	25.897309
1171.913	25.977743
1172.077	25.865108
1172.240	25.783758
1172.404	25.791664
1172.568	26.003443
1172.732	26.347056
1172.896	26.264732
1173.060	26.325222
1173.223	26.924195
1173.387	26.952997
1173.551	26.549642
1173.715	26.068061
1173.878	25.995805
1174.042	25.616896
1174.206	25.681758
1174.369	25.272341
1174.533	25.166977
1174.696	25.210912
1174.860	25.381839
1175.023	25.242885
1175.187	24.888108
1175.351	24.775545
1175.514	25.271623
1175.677	25.360588
1175.841	25.726733
1176.004	25.832348
1176.168	26.500402
1176.331	26.525190
1176.495	26.274755
1176.658	26.047816
1176.821	25.679993
1176.985	25.240047
1177.148	25.585000
1177.311	25.361570
1177.474	25.264380
1177.638	25.127404
1177.801	24.800228
1177.964	24.324220
1178.127	24.055340
1178.291	23.435182
1178.454	23.523058
1178.617	24.110827
1178.780	24.414778
1178.943	24.169436
1179.106	23.874816
1179.269	23.852872
1179.432	23.699423
1179.595	23.928477
1179.758	23.841374
1179.921	24.039680
1180.084	24.736965
1180.247	24.449870
1180.410	24.063350
1180.573	24.299311
1180.736	24.469249
1180.899	24.915897
1181.061	25.278456
1181.224	25.420677
1181.387	25.549311
1181.550	25.606152
1181.713	25.663661
1181.875	25.606639
1182.038	25.585110
1182.201	25.478979
1182.363	24.960772
1182.526	24.529504
1182.689	23.997901
1182.851	23.521176
1183.014	23.660944
1183.177	23.653048
1183.339	23.539323
1183.502	22.993127
1183.664	22.360035
1183.827	22.380560
1183.989	22.361449
1184.152	22.215681
1184.314	22.331216
1184.477	22.906193
1184.639	23.254698
1184.801	22.802365
1184.964	22.476766
1185.126	22.534843
1185.288	22.716337
1185.451	23.281162
1185.613	23.464403
1185.775	23.656470
1185.938	24.064205
1186.100	23.655343
1186.262	23.325269
1186.424	23.377623
1186.586	23.993190
1186.749	24.467645
1186.911	24.510620
1187.073	24.458091
1187.235	24.444515
1187.397	24.506725
1187.559	24.351466
1187.721	24.134948
1187.883	24.603303
1188.045	24.383389
1188.207	24.013510
1188.369	24.063577
1188.531	23.861098
1188.693	23.857966
1188.855	23.725879
1189.017	23.276691
1189.179	23.094306
1189.341	23.116490
1189.502	23.064446
1189.664	22.558200
1189.826	23.009937
1189.988	23.092162
1190.150	22.661832
1190.311	22.385934
1190.473	22.388685
1190.635	22.418138
1190.796	22.518945
1190.958	22.721933
1191.120	22.677579
1191.281	23.099066
1191.443	23.710905
1191.604	23.273595
1191.766	22.788756
1191.928	22.374944
1192.089	22.511123
1192.251	22.599300
1192.412	22.846244
1192.574	23.494089
1192.735	23.529928
1192.896	23.669118
1193.058	23.315113
1193.219	23.403834
1193.381	24.176392
1193.542	24.658288
1193.703	25.168662
1193.865	25.200967
1194.026	25.337140
1194.187	25.443990
1194.349	25.330388
1194.510	25.020618
1194.671	24.785990
1194.832	24.912859
1194.993	24.517480
1195.155	23.851477
1195.316	23.736633
1195.477	23.513210
1195.638	23.091298
1195.799	22.668850
1195.960	22.562766
1196.121	22.452528
1196.282	22.686279
1196.443	22.999665
1196.604	22.998154
1196.765	23.057158
1196.926	23.010614
1197.087	23.140724
1197.248	23.164921
1197.409	23.421132
1197.570	23.580866
1197.730	23.725902
1197.891	23.658866
1198.052	23.859506
1198.213	23.764087
1198.374	23.552036
1198.534	23.072688
1198.695	23.021147
1198.856	23.069428
1199.016	23.148592
1199.177	23.335515
1199.338	23.228351
1199.498	23.567614
1199.659	23.889308
1199.820	23.758372
1199.980	23.948580
1200.141	24.410635
1200.301	25.228776
1200.462	25.858146
1200.622	26.045244
1200.783	26.063624
1200.943	26.200362
1201.104	26.665811
1201.264	26.363178
1201.424	25.946445
1201.585	25.732571
1201.745	25.411353
1201.906	25.319452
1202.066	25.570965
1202.226	25.168160
1202.386	24.627244
1202.547	24.734003
1202.707	24.664368
1202.867	24.626010
1203.027	24.807463
1203.188	25.375656
1203.348	25.634553
1203.508	25.975665
1203.668	26.381385
1203.828	26.091058
1203.988	25.972940
1204.148	26.487567
1204.308	26.489953
1204.468	26.571466
1204.628	26.335005
1204.788	25.843226
1204.948	25.479597
1205.108	26.099411
1205.268	26.266128
1205.428	25.962166
1205.588	26.225116
1205.748	26.395159
1205.908	26.560935
1206.068	26.677219
1206.228	26.658296
1206.387	26.668061
1206.547	26.784273
1206.707	26.583732
1206.867	26.219852
1207.026	26.252570
1207.186	26.220799
1207.346	25.500164
1207.505	25.633710
1207.665	25.278461
1207.825	25.115329
1207.984	25.467971
1208.144	25.561120
1208.303	25.544454
1208.463	25.968517
1208.622	26.235265
1208.782	26.211405
1208.941	26.387100
1209.101	27.024460
1209.260	27.099430
1209.420	27.508820
1209.579	27.469276
1209.739	27.111551
1209.898	27.339143
1210.057	28.047658
1210.217	28.249739
1210.376	27.857759
1210.535	27.699919
1210.694	28.152818
1210.854	28.607291
1211.013	28.698716
1211.172	28.495079
1211.331	28.666277
1211.490	28.927324
1211.650	28.903993
1211.809	28.609271
1211.968	28.259304
1212.127	28.270077
1212.286	28.239177
1212.445	28.008215
1212.604	27.953498
1212.763	28.356802
1212.922	28.932927
1213.081	29.226713
1213.240	29.190568
1213.399	29.297811
1213.558	29.584665
1213.717	29.666334
1213.876	29.756821
1214.035	29.926539
1214.194	29.738523
1214.352	29.504259
1214.511	29.269633
1214.670	29.058525
1214.829	29.370988
1214.988	29.677665
1215.146	29.774623
1215.305	29.927466
1215.464	30.473618
1215.622	30.795871
1215.781	31.058151
1215.940	30.934061
1216.098	30.886667
1216.257	31.095422
1216.415	31.155238
1216.574	30.949500
1216.732	31.083573
1216.891	30.926083
1217.049	30.552636
1217.208	30.493909
1217.366	30.684468
1217.525	30.965194
1217.683	31.434588
1217.842	31.790158
1218.000	31.472387
1218.158	31.345306
1218.317	31.201639
1218.475	30.828606
1218.633	30.831145
1218.792	31.440964
1218.950	31.540589
1219.108	31.295728
1219.266	31.504889
1219.425	31.561375
1219.583	31.344667
1219.741	31.709911
1219.899	32.138710
1220.057	32.547953
1220.215	33.004461
1220.373	33.296964
1220.531	33.116589
1220.689	33.285889
1220.847	33.461776
1221.005	32.794016
1221.163	32.570385
1221.322	32.895220
1221.479	32.870536
1221.637	32.698714
1221.795	32.694611
1221.953	32.421973
1222.111	32.306097
1222.269	32.053702
1222.427	31.797862
1222.584	32.116489
1222.742	32.439691
1222.900	32.819154
1223.058	33.018008
1223.216	33.435097
1223.373	33.697615
1223.531	33.851004
1223.689	33.855828
1223.846	34.086273
1224.004	34.349473
1224.162	34.648641
1224.319	34.657193
1224.477	34.827005
1224.634	34.844101
1224.792	35.214082
1224.949	34.914361
1225.107	34.460776
1225.264	34.350715
1225.422	34.339746
1225.579	34.234067
1225.737	34.129883
1225.894	33.958785
1226.052	33.893079
1226.209	33.818736
1226.366	33.596232
1226.523	32.962355
1226.681	33.324192
1226.838	33.751789
1226.995	33.723052
1227.153	34.045652
1227.310	34.329766
1227.467	34.308398
1227.624	34.619296
1227.781	34.734850
1227.938	35.386033
1228.096	35.929536
1228.253	36.200279
1228.410	35.791900
1228.567	36.035117
1228.724	36.174484
1228.881	36.369018
1229.038	36.691568
1229.195	37.274034
1229.352	37.361446
1229.509	37.211687
1229.666	36.972802
1229.823	36.781155
1229.980	35.971330
1230.136	35.738691
1230.293	35.567865
1230.450	35.947388
1230.607	36.341218
1230.764	36.223022
1230.921	35.960702
1231.077	35.824175
1231.234	36.101452
1231.391	36.331535
1231.547	36.634158
1231.704	37.294960
1231.861	37.869129
1232.018	38.273679
1232.174	38.157273
1232.331	37.871766
1232.487	37.491822
1232.644	37.484450
1232.800	37.608264
1232.957	37.641369
1233.113	37.290982
1233.270	37.095650
1233.426	37.379235
1233.583	37.607722
1233.739	37.556629
1233.896	37.930004
1234.052	38.089333
1234.208	38.469118
1234.365	38.792340
1234.521	39.209263
1234.677	39.605751
1234.834	40.204729
1234.990	40.554943
1235.146	40.110483
1235.302	39.759133
1235.459	40.060804
1235.615	39.511514
1235.771	39.213986
1235.927	39.464927
1236.083	39.484268
1236.239	39.134722
1236.396	39.085413
1236.552	38.521941
1236.708	38.478739
1236.864	38.992072
1237.020	39.599139
1237.176	39.386849
1237.332	39.818614
1237.488	40.367899
1237.644	40.312513
1237.799	40.577435
1237.955	41.281441
1238.111	41.429095
1238.267	41.984684
1238.423	42.136721
1238.579	42.371899
1238.734	42.128034
1238.890	41.860159
1239.046	42.081381
1239.202	42.093422
1239.357	42.268187
1239.513	41.989147
1239.669	41.617806
1239.824	41.297190
1239.980	40.797698
1240.136	41.002412
1240.291	41.140207
1240.447	41.601777
1240.603	42.655357
1240.758	43.221018
1240.914	43.200360
1241.069	43.514590
1241.225	44.285875
1241.380	44.206281
1241.535	44.175960
1241.691	44.702280
1241.846	44.094214
1242.002	43.592268
1242.157	43.149745
1242.313	42.071121
1242.468	41.172422
1242.623	41.105187
1242.778	40.760813
1242.934	40.206313
1243.089	40.345712
1243.244	40.602866
1243.399	40.085040
1243.554	40.361074
1243.710	41.042687
1243.865	41.611576
1244.020	41.957473
1244.175	41.930229
1244.330	42.358393
1244.485	43.301414
1244.640	43.657684
1244.795	43.752941
1244.950	44.015019
1245.105	44.794301
1245.260	45.463240
1245.415	45.037982
1245.570	44.609994
1245.725	44.646687
1245.880	45.528680
1246.035	45.545321
1246.190	44.924546
1246.345	44.826710
1246.499	44.793498
1246.654	44.627086
1246.809	43.964786
1246.964	44.037711
1247.118	44.737680
1247.273	45.300955
1247.428	45.736750
1247.583	45.632322
1247.737	46.618732
1247.892	47.051316
1248.047	47.698011
1248.201	48.169926
1248.356	48.836661
1248.510	49.437984
1248.665	49.257246
1248.819	49.290705
1248.974	49.241295
1249.128	49.240157
1249.283	49.242388
1249.437	48.213850
1249.592	48.220453
1249.746	47.614056
1249.900	47.372866
1250.055	46.921762
1250.209	46.849697
1250.363	46.770533
1250.518	46.259563
1250.672	45.917965
1250.826	45.999002
1250.981	45.858073
1251.135	46.020056
1251.289	46.110918
1251.443	46.486466
1251.597	46.332203
1251.751	46.354101
1251.906	46.666765
1252.060	46.535427
1252.214	45.975341
1252.368	46.455290
1252.522	46.517429
1252.676	46.330109
1252.830	46.322236
1252.984	45.780970
1253.138	45.302416
1253.292	46.124040
1253.446	46.663896
1253.600	46.294303
1253.754	47.061649
1253.907	48.011044
1254.061	47.508289
1254.215	46.902359
1254.369	47.429383
1254.523	47.113040
1254.677	47.582821
1254.830	47.607572
1254.984	46.954154
1255.138	46.938054
1255.292	47.265167
1255.445	46.336484
1255.599	46.381894
1255.752	46.885912
1255.906	47.922104
1256.060	47.753163
1256.213	48.234602
1256.367	48.710593
1256.520	49.432278
1256.674	50.207574
1256.827	49.958717
1256.981	49.778477
1257.134	50.481712
1257.288	51.665927
1257.441	51.991367
1257.594	51.801512
1257.748	51.751257
1257.901	51.831367
1258.055	51.400307
1258.208	51.462557
1258.361	50.434109
1258.515	50.220952
1258.668	49.955071
1258.821	49.517733
1258.974	48.909840
1259.127	49.022300
1259.281	48.884932
1259.434	49.052369
1259.587	48.185418
1259.740	48.194230
1259.893	47.593245
1260.046	47.921740
1260.199	48.044880
1260.352	48.833523
1260.505	48.838980
1260.658	48.078779
1260.811	47.326547
1260.964	46.992414
1261.117	46.651743
1261.270	47.463542
1261.423	47.510814
1261.576	47.956364
1261.729	48.575442
1261.882	49.605538
1262.035	49.846174
1262.188	49.707455
1262.340	50.610662
1262.493	51.192403
1262.646	52.164377
1262.798	52.381980
1262.951	52.728019
1263.104	52.658008
1263.257	52.819492
1263.409	53.435357
1263.562	53.575559
1263.714	53.691759
1263.867	54.878119
1264.020	54.697903
1264.172	55.281162
1264.325	55.554972
1264.477	56.117022
1264.630	55.827180
1264.782	56.201242
1264.935	55.917367
1265.087	54.952060
1265.240	53.781874
1265.392	53.148347
1265.544	52.521207
1265.697	51.509032
1265.849	51.077995
1266.001	49.736413
1266.154	48.460303
1266.306	48.719291
1266.458	48.869326
1266.610	48.884121
1266.762	49.103607
1266.915	49.463280
1267.067	49.837255
1267.219	50.026595
1267.371	51.841691
1267.523	51.883387
1267.675	53.085905
1267.828	53.996218
1267.979	54.511717
1268.132	54.711360
1268.284	55.730770
1268.436	56.024279
1268.588	56.292919
1268.740	56.707027
1268.891	56.641210
1269.043	56.095929
1269.195	56.210600
1269.347	56.610600
1269.499	57.170149
1269.651	57.092952
1269.803	56.659846
1269.955	56.388619
1270.106	56.907944
1270.258	56.517541
1270.410	56.321275
1270.562	56.596991
1270.713	56.347002
1270.865	56.935843
1271.017	57.090268
1271.168	57.689673
1271.320	57.667458
1271.471	58.208235
1271.623	57.578288
1271.775	56.693551
1271.926	56.690762
1272.078	56.235033
1272.229	56.061154
1272.381	56.455075
1272.532	55.950235
1272.684	54.588972
1272.835	53.595228
1272.986	53.617314
1273.138	53.157256
1273.289	54.387602
1273.440	55.651823
1273.592	55.862644
1273.743	56.664357
1273.894	57.075234
1274.046	56.379087
1274.197	56.437925
1274.348	57.129689
1274.500	57.487393
1274.651	57.421366
1274.802	58.137625
>>>>>>>>>> END of Data <<<<<<<<<<
