Date	2025年07月03日木曜日 10時00分48秒
Spectrometers	SR401765
ダーク	使用
リファレンス	使用
積分時間[msec]	300
平均回数	1
ｽﾑｰｼﾞﾝｸﾞ	5
Electrical Dark	USE
ピクセル数	3648
計測モード	反射率
保存開始波長[nm]	598.495
保存終了波長[nm]	1274.802
保存ﾋﾟｯﾁ波長[nm]	全波長

>>>>>>>>>> Data Start <<<<<<<<<<<<
598.495	0.000000
598.713	0.000000
598.931	0.000000
599.148	0.000000
599.366	64.234539
599.584	60.406736
599.802	85.377950
600.020	0.000000
600.238	0.000000
600.455	0.000000
600.673	0.000000
600.891	17.807217
601.109	20.074741
601.326	21.231052
601.544	21.699220
601.762	21.981603
601.979	21.927529
602.197	22.199885
602.415	22.495065
602.632	22.820908
602.850	22.956153
603.067	22.934931
603.285	23.022423
603.502	23.182455
603.720	23.253647
603.938	23.269400
604.155	23.428151
604.372	23.617582
604.590	23.734732
604.807	23.768052
605.025	23.899425
605.242	24.154412
605.460	24.385623
605.677	24.479306
605.894	24.680597
606.112	24.907052
606.329	25.158146
606.546	25.177456
606.764	25.310237
606.981	25.344553
607.198	25.281970
607.415	25.330687
607.633	25.315103
607.850	25.400191
608.067	25.735438
608.284	25.947747
608.501	26.103364
608.718	26.294757
608.935	26.538820
609.153	26.837725
609.370	27.169757
609.587	27.675767
609.804	27.889816
610.021	28.078261
610.238	28.260172
610.455	28.364948
610.672	28.464342
610.889	28.591573
611.106	28.789200
611.323	29.079948
611.540	29.159838
611.756	29.317276
611.973	29.411209
612.190	29.624429
612.407	29.796433
612.624	30.012947
612.841	30.384783
613.057	30.844979
613.274	31.183694
613.491	31.331130
613.708	31.519565
613.925	31.763371
614.141	31.943061
614.358	32.242457
614.575	32.532963
614.791	32.924310
615.008	33.260262
615.225	33.363014
615.441	33.480893
615.658	33.543137
615.874	33.510379
616.091	33.482673
616.307	33.606368
616.524	33.724158
616.740	33.663533
616.957	33.590930
617.173	33.649563
617.390	33.807671
617.606	33.998689
617.823	34.172478
618.039	34.466598
618.256	34.896103
618.472	35.204166
618.688	35.496267
618.905	35.831329
619.121	36.375941
619.337	37.008258
619.554	37.397453
619.770	37.577847
619.986	37.780923
620.202	37.811468
620.419	37.820756
620.635	37.927357
620.851	38.161735
621.067	38.420478
621.283	38.721026
621.499	38.886812
621.716	38.917123
621.932	38.979251
622.148	39.139830
622.364	39.349360
622.580	39.831638
622.796	40.356986
623.012	40.730436
623.228	41.159318
623.444	41.393710
623.660	41.487498
623.876	41.783100
624.092	42.122380
624.308	42.364882
624.524	42.815022
624.740	43.110553
624.955	43.092886
625.171	43.299150
625.387	43.598716
625.603	43.732972
625.819	43.965986
626.034	44.199587
626.250	43.983993
626.466	43.846575
626.682	44.144882
626.897	44.338808
627.113	44.508636
627.329	44.861165
627.544	45.086380
627.760	45.304050
627.976	45.530966
628.191	45.637463
628.407	45.839191
628.623	46.520670
628.838	47.075740
629.054	47.194792
629.269	47.295870
629.485	47.638937
629.700	48.048901
629.916	48.138882
630.131	48.066176
630.347	48.054291
630.562	48.121792
630.777	48.257954
630.993	48.248540
631.208	48.335971
631.424	48.601502
631.639	48.758535
631.854	48.772704
632.070	48.697138
632.285	48.896475
632.500	49.366629
632.715	49.742904
632.931	50.206429
633.146	50.509826
633.361	50.555190
633.576	50.554844
633.791	50.457703
634.007	50.566321
634.222	51.012754
634.437	51.541524
634.652	52.081501
634.867	52.449289
635.082	52.745023
635.297	52.775487
635.512	52.798819
635.727	53.162440
635.942	53.601543
636.157	54.101027
636.372	54.426320
636.587	54.421127
636.802	54.370572
637.017	54.274496
637.232	54.234218
637.447	54.468062
637.662	54.927562
637.876	55.358528
638.091	55.647331
638.306	55.979777
638.521	56.245709
638.736	56.404504
638.951	56.516233
639.165	56.646346
639.380	56.790840
639.595	56.886289
639.809	56.830655
640.024	56.848960
640.239	57.077506
640.453	57.230560
640.668	57.297799
640.883	57.523172
641.097	57.827534
641.312	58.219864
641.526	58.483039
641.741	58.647900
641.955	58.795221
642.170	58.955118
642.384	59.011072
642.599	59.023294
642.813	59.021057
643.028	59.067890
643.242	59.041288
643.457	59.171878
643.671	59.346556
643.885	59.517551
644.100	59.934207
644.314	60.431816
644.528	60.839469
644.743	61.305271
644.957	61.669276
645.171	62.125278
645.386	62.432444
645.600	62.674647
645.814	62.842347
646.028	63.084742
646.242	63.534377
646.457	63.584306
646.671	63.606141
646.885	63.682520
647.099	63.502689
647.313	63.427865
647.527	63.472838
647.741	63.556431
647.955	63.849357
648.169	63.843354
648.383	63.300847
648.597	62.608522
648.811	62.283289
649.025	61.932940
649.239	61.750485
649.453	61.903650
649.667	61.954522
649.881	61.901003
650.095	61.749665
650.309	61.454961
650.523	61.534436
650.737	62.115687
650.950	62.754984
651.164	63.266192
651.378	63.751155
651.592	64.065250
651.805	64.242499
652.019	64.413544
652.233	64.507433
652.447	64.681599
652.660	64.879445
652.874	65.024533
653.088	64.849431
653.301	64.697805
653.515	64.672907
653.728	64.717040
653.942	64.998808
654.156	65.266032
654.369	65.559977
654.583	65.985231
654.796	66.560251
655.010	67.011864
655.223	67.168301
655.437	67.390277
655.650	67.589316
655.863	67.556091
656.077	67.569551
656.290	67.393442
656.504	67.283581
656.717	67.236643
656.930	67.210694
657.144	67.082701
657.357	67.020444
657.570	67.170823
657.783	67.400893
657.997	67.673883
658.210	67.951475
658.423	68.158618
658.636	68.220898
658.849	68.207230
659.063	68.205335
659.276	68.217099
659.489	68.411160
659.702	68.519964
659.915	68.545849
660.128	68.695379
660.341	68.859459
660.554	68.940695
660.767	68.845339
660.980	68.891628
661.193	69.084051
661.406	69.307940
661.619	69.323711
661.832	69.023109
662.045	68.877552
662.258	68.965972
662.471	68.945872
662.684	68.759378
662.897	68.840323
663.110	69.022605
663.322	69.037698
663.535	69.069117
663.748	69.146934
663.961	69.461801
664.174	69.799669
664.386	69.775138
664.599	69.605104
664.812	69.672894
665.024	69.932870
665.237	70.072522
665.450	70.394873
665.662	70.941321
665.875	71.341951
666.088	71.596866
666.300	71.688502
666.513	72.070936
666.725	72.808947
666.938	73.327638
667.150	73.359891
667.363	73.347560
667.575	73.453031
667.788	73.386156
668.000	73.167102
668.213	73.011310
668.425	72.791106
668.638	72.626500
668.850	72.400041
669.062	72.043115
669.275	71.928917
669.487	72.041778
669.699	72.137841
669.912	72.079013
670.124	72.024513
670.336	72.040248
670.548	71.883961
670.761	71.868647
670.973	71.886555
671.185	71.712470
671.397	71.627540
671.609	71.608219
671.822	71.801435
672.034	71.981572
672.246	72.201092
672.458	72.460693
672.670	72.570840
672.882	72.625255
673.094	72.579550
673.306	72.711692
673.518	73.035389
673.730	73.361558
673.942	73.790893
674.154	73.946522
674.366	73.731161
674.578	73.388917
674.790	73.237688
675.002	73.368994
675.214	73.468527
675.425	73.478877
675.637	73.388678
675.849	73.321808
676.061	73.373216
676.273	73.188375
676.484	72.967708
676.696	73.077812
676.908	73.424063
677.120	73.590893
677.331	73.703164
677.543	74.072186
677.755	74.719870
677.966	75.162376
678.178	75.274273
678.389	75.201984
678.601	75.235490
678.813	75.310107
679.024	75.286045
679.236	75.174074
679.447	75.116044
679.659	75.059189
679.870	74.987441
680.082	74.734126
680.293	74.595286
680.505	74.727893
680.716	74.699436
680.927	74.664626
681.139	74.739146
681.350	74.894438
681.562	74.993292
681.773	74.960357
681.984	74.553010
682.196	73.841835
682.407	73.216233
682.618	72.749807
682.829	72.370770
683.041	72.357327
683.252	72.458556
683.463	72.739602
683.674	73.141098
683.885	73.372645
684.097	73.552348
684.308	73.870510
684.519	74.313882
684.730	74.815747
684.941	75.281222
685.152	75.711922
685.363	76.000443
685.574	76.057593
685.785	75.707626
685.996	75.223984
686.207	75.114796
686.418	75.202406
686.629	75.457860
686.840	75.853237
687.051	76.006984
687.262	75.929927
687.473	75.691936
687.684	75.469732
687.894	75.414906
688.105	75.383052
688.316	75.276733
688.527	75.008890
688.738	74.693584
688.948	74.318252
689.159	73.832961
689.370	73.538776
689.580	73.191926
689.791	72.791984
690.002	72.436711
690.212	72.018745
690.423	72.041468
690.634	72.269002
690.844	72.402975
691.055	72.599135
691.266	73.049207
691.476	73.664738
691.687	74.135675
691.897	74.460962
692.108	74.880369
692.318	75.250279
692.529	75.598178
692.739	75.715155
692.949	75.879729
693.160	76.114086
693.370	76.122619
693.581	76.065849
693.791	76.089158
694.001	76.178050
694.212	76.363959
694.422	76.469977
694.632	76.393754
694.843	76.092692
695.053	75.831453
695.263	75.538732
695.473	75.442950
695.683	75.781428
695.894	75.971042
696.104	75.878247
696.314	75.797937
696.524	75.839193
696.734	75.709337
696.944	75.781625
697.154	76.190635
697.365	76.387693
697.575	76.525045
697.785	76.671016
697.995	76.461748
698.205	76.417043
698.415	76.627495
698.625	76.670768
698.834	76.796915
699.044	77.228943
699.254	77.502512
699.464	77.773585
699.674	78.230337
699.884	78.364370
700.094	78.327227
700.304	78.283429
700.513	77.857434
700.723	77.059020
700.933	76.390871
701.143	75.722215
701.353	75.140731
701.562	74.679405
701.772	74.026163
701.982	73.458319
702.191	73.175688
702.401	72.878410
702.611	72.765941
702.820	72.933456
703.030	73.379437
703.239	73.795304
703.449	74.176134
703.659	74.602151
703.868	75.189318
704.078	75.924582
704.287	76.430511
704.497	76.601522
704.706	76.607369
704.916	76.473058
705.125	76.333181
705.334	76.305216
705.544	76.433879
705.753	76.574720
705.962	76.399504
706.172	75.970020
706.381	75.674858
706.590	75.499325
706.800	75.659552
707.009	76.005097
707.218	76.278222
707.428	76.312494
707.637	75.997508
707.846	75.793639
708.055	76.117370
708.264	76.848466
708.474	77.637933
708.683	78.106798
708.892	78.390475
709.101	78.410358
709.310	78.260236
709.519	78.139244
709.728	78.189600
709.937	78.809667
710.146	79.366869
710.355	79.165302
710.564	78.381045
710.773	77.543978
710.982	76.827989
711.191	76.380902
711.400	76.159841
711.609	76.249856
711.818	76.477758
712.027	76.671992
712.235	76.604348
712.444	76.407295
712.653	76.412871
712.862	76.721370
713.071	76.857748
713.279	76.894859
713.488	76.859062
713.697	76.899571
713.906	76.810526
714.114	76.667053
714.323	76.472276
714.532	76.191014
714.740	75.890091
714.949	75.621810
715.157	75.580887
715.366	75.734127
715.575	75.811059
715.783	75.980968
715.992	76.135594
716.200	76.017828
716.409	75.683552
716.617	75.261699
716.826	74.914462
717.034	74.669868
717.242	74.563680
717.451	74.564888
717.659	74.677168
717.868	74.797815
718.076	74.710133
718.284	74.421274
718.493	74.274028
718.701	74.203649
718.909	74.542415
719.118	74.920589
719.326	75.088541
719.534	75.084360
719.742	74.904648
719.951	74.556580
720.159	74.296790
720.367	74.258963
720.575	74.310168
720.783	74.382681
720.991	74.496074
721.199	74.333561
721.408	74.161153
721.616	74.276613
721.824	74.521055
722.032	74.446170
722.240	74.356781
722.448	74.477431
722.656	74.597952
722.864	74.614774
723.072	74.514134
723.280	74.200865
723.487	73.740215
723.695	73.364752
723.903	72.994372
724.111	72.551188
724.319	72.339829
724.527	72.466237
724.735	72.795977
724.942	72.903367
725.150	72.866843
725.358	72.803777
725.566	73.048392
725.773	73.580171
725.981	73.994964
726.189	74.155863
726.396	74.279211
726.604	74.332347
726.812	74.167511
727.019	73.606021
727.227	73.006596
727.435	72.656922
727.642	72.771605
727.850	72.931263
728.057	72.779555
728.265	72.450177
728.472	72.307847
728.680	72.175242
728.887	71.969159
729.095	71.733627
729.302	71.689466
729.509	71.781940
729.717	72.043695
729.924	72.112310
730.132	71.970287
730.339	71.958887
730.546	72.120604
730.753	72.128496
730.961	72.086558
731.168	72.110285
731.375	72.035359
731.583	71.836508
731.790	71.838392
731.997	71.914862
732.204	71.973708
732.411	71.947992
732.618	71.912283
732.826	71.772908
733.033	71.828042
733.240	72.037097
733.447	72.200010
733.654	72.373628
733.861	72.581306
734.068	72.534873
734.275	72.207422
734.482	71.827515
734.689	71.664050
734.896	71.597005
735.103	71.605416
735.310	71.430749
735.517	71.178046
735.724	71.171853
735.931	71.581821
736.137	71.976677
736.344	72.155144
736.551	72.129567
736.758	71.975443
736.965	71.848735
737.171	71.863040
737.378	71.885623
737.585	71.908280
737.792	72.087387
737.998	72.337269
738.205	72.187522
738.412	71.660855
738.618	71.309885
738.825	71.303919
739.032	71.472711
739.238	71.739260
739.445	71.900101
739.651	71.774493
739.858	71.448876
740.064	70.791943
740.271	70.011561
740.477	69.432027
740.684	69.291516
740.890	69.094206
741.097	68.587200
741.303	68.029567
741.510	67.627854
741.716	67.248548
741.922	66.983807
742.129	66.959167
742.335	67.146109
742.541	67.256171
742.748	67.238881
742.954	67.309855
743.160	67.449305
743.366	67.633512
743.573	67.806550
743.779	67.845715
743.985	67.947394
744.191	68.066877
744.397	68.197548
744.604	68.193725
744.810	68.042036
745.016	68.203798
745.222	68.352861
745.428	68.516928
745.634	68.798354
745.840	69.064376
746.046	69.154661
746.252	69.037938
746.458	68.897551
746.664	68.701968
746.870	68.522364
747.076	68.189952
747.282	67.650883
747.488	67.214113
747.694	66.947172
747.900	66.932784
748.105	67.054334
748.311	66.979078
748.517	66.844366
748.723	66.850354
748.929	66.705722
749.134	66.521209
749.340	66.485357
749.546	66.465429
749.752	66.384014
749.957	66.144540
750.163	65.700540
750.369	65.083706
750.574	64.716138
750.780	64.513763
750.985	64.235496
751.191	64.224363
751.397	64.345507
751.602	64.571317
751.808	64.693442
752.013	64.619802
752.219	64.443291
752.424	64.146318
752.630	63.771604
752.835	63.514013
753.041	63.438312
753.246	63.458574
753.451	63.348601
753.657	63.317463
753.862	63.277095
754.067	63.083574
754.273	62.985778
754.478	63.070262
754.683	63.093837
754.889	63.178019
755.094	63.110286
755.299	62.752528
755.504	62.312525
755.710	62.037957
755.915	61.635073
756.120	61.027393
756.325	60.496445
756.530	59.774925
756.735	59.009663
756.940	58.496004
757.146	58.244991
757.351	58.188242
757.556	58.303426
757.761	58.535225
757.966	58.745439
758.171	58.838459
758.376	58.957181
758.581	59.045698
758.786	59.345521
758.990	59.596493
759.195	59.745114
759.400	59.705243
759.605	59.447876
759.810	59.113839
760.015	58.825833
760.220	58.390768
760.424	58.066333
760.629	57.719451
760.834	57.421682
761.039	57.115048
761.244	56.942209
761.448	56.779754
761.653	56.520402
761.858	56.184115
762.062	55.777471
762.267	55.297190
762.472	54.917725
762.676	54.725181
762.881	54.844790
763.085	55.108062
763.290	55.167598
763.494	54.956424
763.699	54.638905
763.903	54.404530
764.108	54.303457
764.312	54.365469
764.517	54.415253
764.721	54.376125
764.926	54.090706
765.130	53.518447
765.335	53.000556
765.539	52.620234
765.743	52.293642
765.948	52.010954
766.152	51.720054
766.356	51.330679
766.560	50.944588
766.765	50.777245
766.969	50.620627
767.173	50.346723
767.377	50.313114
767.582	50.357701
767.786	50.209639
767.990	50.060150
768.194	50.117782
768.398	50.111076
768.602	50.068742
768.806	49.910191
769.010	49.452356
769.215	48.952997
769.419	48.730248
769.623	48.573063
769.827	48.151938
770.031	47.708301
770.234	47.214755
770.438	46.414859
770.642	45.862173
770.846	45.529937
771.050	45.024244
771.254	44.729988
771.458	44.635697
771.662	44.430239
771.866	44.095883
772.069	43.838356
772.273	43.724232
772.477	43.543099
772.681	43.530373
772.885	43.366656
773.088	42.962906
773.292	42.736399
773.496	42.394685
773.699	42.048191
773.903	41.837329
774.107	41.527667
774.310	41.102705
774.514	40.610107
774.717	40.409889
774.921	40.295367
775.124	40.268724
775.328	40.388444
775.531	40.484481
775.735	40.419728
775.938	40.092051
776.142	39.486933
776.345	39.010918
776.549	38.658626
776.752	38.377083
776.956	38.006383
777.159	37.439571
777.362	36.739184
777.566	36.027569
777.769	35.413689
777.972	34.852576
778.176	34.457540
778.379	34.270977
778.582	34.134110
778.785	33.899465
778.989	33.661464
779.192	33.435108
779.395	33.387762
779.598	33.322889
779.801	33.128527
780.004	32.706070
780.207	32.384169
780.411	32.118961
780.614	31.915162
780.817	31.534031
781.020	31.113023
781.223	30.621508
781.426	30.137745
781.629	29.615219
781.832	29.191580
782.035	28.743279
782.238	28.434108
782.440	28.146265
782.643	27.899307
782.846	27.544569
783.049	27.127794
783.252	26.773718
783.455	26.587848
783.658	26.325108
783.860	25.946339
784.063	25.567607
784.266	25.349827
784.469	25.126969
784.671	24.933458
784.874	24.654329
785.077	24.416662
785.279	24.347886
785.482	24.286693
785.685	24.157345
785.887	24.051671
786.090	23.924910
786.293	23.689289
786.495	23.408824
786.698	23.010874
786.900	22.535228
787.103	22.148337
787.305	21.690492
787.508	21.265819
787.710	20.786956
787.913	20.289192
788.115	19.808171
788.317	19.394040
788.520	19.108776
788.722	18.879198
788.924	18.693086
789.127	18.577896
789.329	18.412167
789.531	18.247548
789.734	18.148770
789.936	18.107561
790.138	17.912282
790.340	17.729778
790.543	17.534600
790.745	17.258208
790.947	16.942589
791.149	16.716587
791.351	16.376201
791.553	15.996097
791.756	15.739949
791.958	15.412810
792.160	15.098437
792.362	14.910266
792.564	14.690375
792.766	14.516334
792.968	14.360734
793.170	14.245214
793.372	14.098997
793.574	13.906288
793.776	13.716396
793.978	13.462224
794.180	13.240226
794.381	13.107706
794.583	13.069677
794.785	12.980396
794.987	12.882548
795.189	12.798459
795.391	12.686763
795.592	12.521905
795.794	12.394127
795.996	12.355932
796.198	12.320867
796.399	12.291075
796.601	12.124462
796.803	11.945948
797.004	11.869610
797.206	11.833330
797.407	11.753216
797.609	11.656182
797.811	11.609348
798.012	11.589229
798.214	11.519472
798.415	11.437685
798.617	11.290059
798.818	11.253934
799.020	11.265101
799.221	11.125892
799.423	10.981032
799.624	10.895416
799.826	10.734460
800.027	10.718606
800.228	10.824501
800.430	10.912052
800.631	11.083221
800.832	11.174012
801.034	11.210143
801.235	11.253245
801.436	11.360577
801.637	11.513602
801.839	11.708265
802.040	11.900905
802.241	11.998908
802.442	11.953200
802.643	11.883672
802.844	11.725736
803.046	11.719503
803.247	11.673666
803.448	11.605034
803.649	11.687830
803.850	11.748846
804.051	11.783487
804.252	11.941296
804.453	11.971243
804.654	12.045605
804.855	12.188454
805.056	12.334067
805.257	12.498280
805.458	12.819770
805.659	13.030110
805.859	13.076547
806.060	13.128778
806.261	13.238704
806.462	13.137613
806.663	13.154160
806.864	13.304903
807.064	13.417653
807.265	13.640641
807.466	13.824312
807.667	13.875228
807.867	14.002917
808.068	14.355918
808.269	14.679177
808.469	14.914791
808.670	15.339387
808.870	15.675518
809.071	15.832273
809.272	15.987152
809.472	16.094559
809.673	16.176114
809.873	16.330967
810.074	16.495738
810.274	16.495720
810.475	16.565689
810.675	16.696819
810.876	16.749255
811.076	16.897810
811.276	17.192358
811.477	17.500865
811.677	17.722443
811.878	17.879760
812.078	18.105392
812.278	18.309253
812.479	18.568118
812.679	18.753094
812.879	18.996314
813.079	19.330060
813.280	19.567805
813.480	19.711235
813.680	19.926240
813.880	20.154669
814.080	20.494444
814.280	20.820215
814.480	21.114844
814.681	21.430911
814.881	21.744506
815.081	22.047358
815.281	22.471401
815.481	22.901347
815.681	23.319707
815.881	23.603122
816.081	23.832327
816.281	23.870744
816.481	24.027494
816.681	24.260541
816.880	24.537047
817.080	24.851101
817.280	25.085128
817.480	25.234641
817.680	25.407268
817.880	25.589684
818.080	25.770260
818.279	26.040193
818.479	26.418589
818.679	26.703687
818.879	26.954127
819.078	27.080802
819.278	27.074143
819.478	27.116782
819.677	27.204023
819.877	27.475108
820.077	27.849779
820.276	28.100418
820.476	28.400907
820.675	28.901804
820.875	29.461732
821.074	29.986018
821.274	30.332681
821.473	30.645705
821.673	30.927961
821.872	31.228360
822.072	31.409271
822.271	31.474454
822.471	31.633426
822.670	31.786385
822.869	31.859870
823.069	31.857190
823.268	31.912274
823.467	32.196885
823.667	32.603375
823.866	33.105460
824.065	33.479779
824.265	33.732992
824.464	34.060083
824.663	34.498167
824.862	34.879307
825.061	35.304877
825.261	35.529126
825.460	35.632644
825.659	35.697986
825.858	35.709746
826.057	35.615286
826.256	35.603948
826.455	35.731705
826.654	35.909675
826.853	36.115375
827.052	36.247592
827.251	36.269194
827.450	36.472128
827.649	36.637023
827.848	36.719088
828.047	36.906609
828.246	37.155787
828.445	37.319251
828.644	37.510074
828.843	37.776870
829.041	37.962892
829.240	38.261033
829.439	38.533388
829.638	38.476104
829.836	38.496793
830.035	38.812025
830.234	39.122295
830.433	39.436815
830.631	40.006498
830.830	40.659149
831.029	41.291921
831.227	41.858495
831.426	42.273072
831.624	42.653528
831.823	43.322324
832.022	44.039489
832.220	44.595324
832.419	45.051072
832.617	45.312105
832.816	45.375650
833.014	45.408973
833.213	45.197657
833.411	45.099165
833.609	45.170753
833.808	45.058150
834.006	44.764006
834.205	44.645634
834.403	44.656334
834.601	44.891694
834.800	45.390786
834.998	45.786207
835.196	45.569192
835.394	45.433741
835.593	45.313490
835.791	45.287600
835.989	45.647075
836.187	46.200742
836.385	46.682451
836.584	46.893318
836.782	46.823412
836.980	46.590642
837.178	46.566685
837.376	46.965471
837.574	47.249589
837.772	47.528783
837.970	47.687489
838.168	47.804201
838.366	47.946914
838.564	48.153150
838.762	48.487282
838.960	48.834247
839.158	49.053832
839.356	49.171302
839.554	49.517209
839.752	49.949018
839.949	50.472255
840.147	51.049615
840.345	51.547940
840.543	51.928554
840.741	52.044281
840.938	52.247183
841.136	52.576853
841.334	52.810885
841.532	52.900661
841.729	52.624114
841.927	52.379346
842.125	52.271096
842.322	52.277363
842.520	52.233841
842.718	52.213343
842.915	52.159466
843.113	52.285469
843.310	52.272643
843.508	52.240783
843.705	52.149162
843.903	52.200398
844.100	52.483345
844.298	52.672172
844.495	52.823601
844.693	53.218533
844.890	53.999928
845.087	54.714819
845.285	55.015250
845.482	55.291185
845.679	55.589228
845.877	55.804836
846.074	55.986180
846.271	55.873743
846.469	55.729512
846.666	55.527566
846.863	55.224810
847.060	54.817647
847.257	54.612123
847.455	54.542892
847.652	54.381864
847.849	54.203210
848.046	54.207863
848.243	54.441575
848.440	54.952156
848.637	55.525097
848.834	55.727697
849.031	55.767021
849.228	55.804053
849.425	56.167605
849.622	56.526485
849.819	57.118570
850.016	57.785451
850.213	58.297100
850.410	58.429910
850.607	58.589658
850.804	58.806150
851.001	59.088236
851.198	59.277786
851.394	59.176531
851.591	58.815250
851.788	58.808570
851.985	58.864252
852.181	58.868808
852.378	58.970485
852.575	59.273058
852.772	59.333299
852.968	59.113585
853.165	59.221749
853.362	59.433040
853.558	59.904496
853.755	60.354177
853.951	60.571357
854.148	60.835539
854.345	60.927869
854.541	61.128482
854.738	61.483157
854.934	61.801529
855.131	61.916121
855.327	62.088111
855.523	62.438297
855.720	62.713815
855.916	62.541770
856.113	62.149946
856.309	61.573283
856.505	61.360116
856.702	61.252988
856.898	61.171511
857.094	61.051791
857.291	60.857745
857.487	60.493906
857.683	60.211996
857.879	59.593396
858.076	59.248122
858.272	58.889285
858.468	58.637373
858.664	58.626029
858.860	58.612355
859.056	58.439219
859.253	58.510327
859.449	58.973796
859.645	59.683879
859.841	59.937968
860.037	60.272323
860.233	60.527981
860.429	61.149915
860.625	61.716091
860.821	62.024583
861.017	62.184623
861.213	62.139497
861.409	61.776499
861.604	61.514203
861.800	61.123490
861.996	60.666663
862.192	60.534008
862.388	60.702114
862.584	60.557989
862.779	60.385629
862.975	60.237845
863.171	60.242907
863.367	60.449771
863.562	60.938049
863.758	61.200320
863.954	61.356863
864.149	61.574089
864.345	61.458542
864.541	61.274898
864.736	61.351393
864.932	61.507909
865.127	61.801541
865.323	61.833419
865.518	61.814676
865.714	61.646312
865.910	61.668628
866.105	61.841471
866.300	62.483494
866.496	63.121950
866.691	63.526718
866.887	63.467190
867.082	63.412279
867.277	63.135069
867.473	62.738618
867.668	62.701959
867.864	62.789857
868.059	62.791580
868.254	62.602895
868.449	62.008656
868.645	61.550650
868.840	61.587287
869.035	62.041459
869.230	62.611929
869.425	63.129334
869.621	63.854073
869.816	64.127643
870.011	64.302615
870.206	64.489166
870.401	64.869476
870.596	65.526012
870.791	66.074113
870.986	66.046833
871.181	65.831531
871.376	65.698641
871.571	65.255010
871.766	64.658624
871.961	64.207583
872.156	63.713436
872.351	63.437475
872.546	63.278714
872.741	63.024820
872.936	63.033091
873.130	63.301428
873.325	63.516774
873.520	63.477985
873.715	63.654889
873.910	64.077221
874.104	64.669438
874.299	65.481878
874.494	66.175787
874.688	66.541471
874.883	66.442133
875.078	66.354675
875.272	66.393130
875.467	66.176906
875.662	66.078513
875.856	66.196927
876.051	66.122990
876.245	65.850841
876.440	65.670294
876.634	65.613662
876.829	65.576592
877.023	65.931137
877.218	66.323593
877.412	66.619320
877.607	67.234523
877.801	67.760586
877.995	68.088982
878.190	68.392974
878.384	68.641783
878.578	68.574288
878.773	67.962541
878.967	67.300062
879.161	66.938833
879.356	66.543071
879.550	66.057704
879.744	65.731333
879.938	65.280668
880.133	65.043772
880.327	64.757212
880.521	64.707380
880.715	64.698112
880.909	64.755753
881.103	65.020145
881.297	65.042662
881.491	64.988817
881.685	65.200895
881.880	65.251467
882.073	65.294743
882.267	65.162342
882.461	65.270323
882.655	65.443950
882.849	66.010824
883.043	66.555232
883.237	66.874997
883.431	67.500704
883.625	68.359987
883.819	68.615163
884.013	68.630608
884.206	68.763461
884.400	68.820683
884.594	68.890287
884.788	68.715801
884.982	68.065350
885.175	67.972157
885.369	68.243495
885.563	68.326841
885.756	67.850317
885.950	67.598660
886.144	67.435642
886.337	67.343492
886.531	67.472641
886.724	67.593999
886.918	67.870743
887.112	68.146340
887.305	68.162925
887.499	68.161224
887.692	68.218096
887.885	68.683959
888.079	69.046229
888.272	69.289853
888.466	69.436609
888.659	69.726275
888.853	70.050432
889.046	70.182152
889.239	70.311904
889.433	70.032989
889.626	69.636476
889.819	69.447331
890.013	69.204410
890.206	69.084252
890.399	68.932629
890.592	68.798818
890.785	68.530458
890.979	68.190322
891.172	67.946490
891.365	67.558676
891.558	66.919071
891.751	66.198954
891.944	65.340822
892.137	64.604924
892.330	63.996591
892.524	63.894063
892.717	64.054417
892.910	64.401976
893.103	64.785938
893.296	65.350981
893.488	66.127193
893.681	67.276766
893.874	68.446324
894.067	69.104924
894.260	69.219792
894.453	69.331068
894.646	69.343746
894.839	69.302186
895.031	69.063972
895.224	68.859019
895.417	68.636048
895.610	68.353253
895.802	68.238759
895.995	68.081128
896.188	68.197377
896.381	68.505325
896.573	68.909626
896.766	69.181757
896.958	69.178976
897.151	69.270447
897.344	69.681001
897.536	69.657650
897.729	70.082697
897.921	70.767852
898.114	71.379987
898.306	71.660440
898.499	72.102675
898.691	72.481987
898.884	73.110328
899.076	73.724792
899.269	74.607365
899.461	75.131648
899.653	75.759428
899.846	76.057921
900.038	76.157052
900.230	76.018672
900.423	75.803569
900.615	75.474486
900.807	75.177840
901.000	75.072330
901.192	75.078600
901.384	74.633546
901.576	74.195117
901.768	74.101449
901.961	74.184157
902.153	73.965585
902.345	74.037316
902.537	74.343280
902.729	75.071082
902.921	75.607059
903.113	75.435321
903.305	75.173780
903.497	75.091147
903.689	74.884628
903.881	74.892922
904.073	74.693993
904.265	74.858356
904.457	75.443354
904.649	76.106076
904.841	76.126262
905.033	76.472285
905.224	77.220452
905.416	78.136236
905.608	78.771756
905.800	79.342392
905.992	78.991662
906.183	78.195634
906.375	77.158942
906.567	75.959257
906.759	74.848934
906.950	73.703877
907.142	72.400782
907.334	71.287692
907.525	70.248524
907.717	69.511985
907.909	69.219288
908.100	69.743492
908.292	70.456366
908.483	71.370664
908.675	71.791047
908.866	71.882996
909.058	72.098355
909.249	72.696747
909.441	73.251992
909.632	73.589878
909.824	73.393306
910.015	72.644462
910.206	71.584034
910.398	71.034488
910.589	70.729822
910.780	70.542006
910.972	70.694867
911.163	71.375592
911.354	71.653922
911.546	71.897669
911.737	72.060252
911.928	72.412820
912.119	73.005381
912.310	73.439959
912.502	73.614442
912.693	73.628169
912.884	73.907900
913.075	74.015663
913.266	73.694745
913.457	73.514719
913.648	73.119404
913.839	72.566635
914.030	72.410835
914.221	72.150875
914.412	72.461702
914.603	72.638740
914.794	72.243666
914.985	71.751970
915.176	71.501199
915.367	71.374595
915.558	71.020423
915.749	71.142224
915.940	71.791473
916.130	71.955964
916.321	72.166201
916.512	72.088727
916.703	72.271271
916.893	72.848037
917.084	73.512414
917.275	74.284571
917.466	74.866335
917.656	75.368708
917.847	75.452974
918.038	75.242341
918.228	75.277165
918.419	75.510052
918.609	75.518420
918.800	74.932223
918.990	74.345427
919.181	73.601844
919.372	72.589876
919.562	72.027491
919.753	72.102865
919.943	71.925809
920.133	71.712537
920.324	71.559875
920.514	71.233332
920.705	71.144354
920.895	71.599278
921.085	71.942156
921.276	72.356788
921.466	73.279631
921.656	74.038330
921.847	74.612565
922.037	75.516091
922.227	76.266044
922.417	77.001887
922.608	77.662696
922.798	78.129210
922.988	78.394930
923.178	78.747341
923.368	79.025149
923.558	78.890559
923.748	78.690802
923.939	78.519562
924.129	78.173371
924.319	77.924992
924.509	77.883745
924.699	77.556428
924.889	76.933144
925.079	76.313031
925.269	75.763229
925.459	75.315030
925.648	75.404312
925.838	75.844555
926.028	75.979426
926.218	76.326783
926.408	76.407478
926.598	76.156012
926.788	76.232383
926.977	76.808495
927.167	77.324841
927.357	77.786068
927.547	78.358339
927.736	78.541820
927.926	78.257262
928.116	77.862580
928.305	77.228568
928.495	76.958677
928.685	76.756400
928.874	76.440684
929.064	76.080760
929.253	76.336576
929.443	76.613031
929.633	76.987327
929.822	77.273562
930.012	77.401276
930.201	77.574696
930.391	77.757789
930.580	77.789483
930.769	78.119189
930.959	78.662685
931.148	78.986706
931.338	78.756822
931.527	78.356241
931.716	77.898419
931.906	77.708323
932.095	77.266840
932.284	76.805515
932.474	76.487408
932.663	76.489921
932.852	75.878270
933.041	75.165486
933.230	74.829757
933.420	74.856301
933.609	75.125589
933.798	75.222118
933.987	75.019489
934.176	75.095073
934.365	75.439817
934.554	75.719044
934.743	75.918403
934.932	76.512307
935.121	77.053179
935.310	77.471344
935.499	77.492244
935.688	77.853252
935.877	78.399097
936.066	78.961190
936.255	79.429572
936.444	79.796511
936.633	80.232051
936.822	80.631874
937.010	81.193581
937.199	81.998203
937.388	81.959298
937.577	81.814806
937.766	81.554355
937.954	81.392954
938.143	81.178017
938.332	81.099036
938.520	81.045551
938.709	81.209783
938.898	81.299371
939.086	81.183846
939.275	81.102123
939.464	81.489354
939.652	81.671337
939.841	81.866311
940.029	81.824778
940.218	81.845086
940.406	81.788794
940.595	81.718332
940.783	81.403504
940.972	80.994535
941.160	80.337224
941.349	79.775161
941.537	79.376334
941.725	79.508518
941.914	79.396050
942.102	79.112756
942.290	79.061239
942.479	79.123109
942.667	78.876992
942.855	78.526905
943.043	77.999723
943.232	77.796532
943.420	77.840877
943.608	77.808373
943.796	77.626444
943.984	77.285651
944.172	77.079354
944.361	76.842534
944.549	76.908616
944.737	77.461126
944.925	78.128639
945.113	78.912307
945.301	79.820401
945.489	79.901309
945.677	80.159748
945.865	80.107224
946.053	80.602538
946.241	81.024879
946.429	81.134475
946.617	80.657036
946.805	80.057254
946.992	79.590329
947.180	79.499348
947.368	78.941223
947.556	79.111943
947.744	78.886645
947.931	78.975584
948.119	78.787577
948.307	78.665000
948.495	78.866652
948.682	79.160332
948.870	79.360779
949.058	79.819839
949.245	79.370830
949.433	79.108554
949.621	78.465143
949.808	78.199799
949.996	78.406237
950.183	79.031688
950.371	79.652872
950.558	79.979664
950.746	80.887111
950.933	82.120413
951.121	82.502497
951.308	83.366443
951.496	83.695739
951.683	84.019062
951.870	84.881949
952.058	85.493973
952.245	85.455154
952.433	85.172850
952.620	84.994582
952.807	84.465605
952.994	83.337476
953.182	82.392479
953.369	81.700221
953.556	81.441141
953.743	81.207926
953.931	80.381290
954.118	79.347985
954.305	78.480364
954.492	78.002525
954.679	77.601357
954.866	76.640286
955.053	76.318010
955.240	76.636992
955.427	76.779074
955.615	77.471098
955.802	77.854213
955.989	78.317027
956.175	78.852191
956.362	79.068545
956.549	78.869969
956.736	78.524869
956.923	78.829438
957.110	78.732614
957.297	78.255232
957.484	77.820373
957.671	77.542885
957.857	77.579197
958.044	77.072398
958.231	76.548500
958.418	76.178631
958.604	76.157326
958.791	76.430680
958.978	76.321241
959.165	76.228324
959.351	76.151203
959.538	76.764635
959.724	76.887731
959.911	76.717545
960.098	77.155276
960.284	77.608487
960.471	78.652696
960.657	79.679017
960.844	79.757725
961.030	80.140362
961.217	80.384663
961.403	80.539926
961.590	80.161011
961.776	80.159965
961.963	80.715300
962.149	81.022626
962.335	80.770475
962.522	79.975341
962.708	79.062942
962.894	78.700457
963.081	77.905302
963.267	77.330028
963.453	77.046481
963.639	76.823162
963.826	76.307368
964.012	75.786324
964.198	75.372098
964.384	75.435895
964.570	75.094681
964.756	75.438994
964.943	76.426994
965.129	77.420246
965.315	77.519744
965.501	77.582674
965.687	77.759844
965.873	78.124909
966.059	78.206390
966.245	78.512256
966.431	79.490576
966.617	81.004284
966.803	81.556719
966.989	81.789987
967.174	81.815697
967.360	82.476419
967.546	83.171039
967.732	83.988783
967.918	84.493253
968.104	84.939206
968.289	85.180326
968.475	84.622874
968.661	84.075461
968.847	83.537214
969.032	82.879232
969.218	82.724206
969.404	82.923465
969.589	82.981943
969.775	82.265473
969.961	81.591102
970.146	80.938153
970.332	80.315983
970.517	80.141615
970.703	79.678344
970.888	79.444529
971.074	79.548709
971.260	79.793175
971.445	79.944989
971.630	80.133875
971.816	80.840467
972.001	80.895915
972.187	80.730302
972.372	80.634357
972.557	80.893566
972.743	80.908923
972.928	81.061261
973.113	81.015525
973.299	80.827654
973.484	80.535537
973.669	80.015310
973.854	79.471530
974.040	79.744517
974.225	80.080153
974.410	80.732378
974.595	80.812497
974.780	81.712335
974.965	82.612874
975.151	83.121093
975.336	83.663023
975.521	84.040694
975.706	84.485174
975.891	84.755138
976.076	84.643803
976.261	84.674800
976.446	83.521264
976.631	82.367696
976.816	81.362928
977.001	80.566116
977.186	80.607087
977.370	80.705710
977.555	80.695477
977.740	81.392893
977.925	82.118624
978.110	82.946781
978.295	83.282575
978.479	84.399798
978.664	85.490566
978.849	85.963352
979.034	86.315032
979.218	86.101302
979.403	86.392745
979.588	86.380037
979.772	86.446348
979.957	86.622013
980.141	86.409629
980.326	86.904666
980.511	87.095888
980.695	87.463735
980.880	87.709442
981.064	87.489194
981.249	86.942625
981.433	85.610501
981.618	85.460995
981.802	84.769659
981.987	83.868423
982.171	83.103356
982.355	81.724159
982.540	81.037630
982.724	80.667407
982.908	80.530738
983.093	80.809009
983.277	81.365394
983.461	81.993259
983.646	82.107926
983.830	81.943936
984.014	82.607808
984.198	83.204943
984.382	83.949091
984.567	84.971134
984.751	85.416145
984.935	85.341764
985.119	85.395604
985.303	84.532199
985.487	83.748026
985.671	83.529022
985.855	84.042155
986.039	83.878588
986.223	83.867086
986.407	83.846196
986.591	83.533099
986.775	83.352666
986.959	84.244018
987.143	84.535943
987.327	85.316903
987.511	86.154838
987.695	86.151016
987.879	86.188078
988.062	86.092119
988.246	85.897251
988.430	85.889251
988.614	86.073481
988.797	86.203953
988.981	85.336355
989.165	84.416093
989.349	83.747753
989.532	83.717968
989.716	83.897172
989.900	83.120420
990.083	82.857188
990.267	82.781229
990.450	83.660608
990.634	83.494704
990.817	83.667826
991.001	84.479163
991.184	85.011386
991.368	85.795857
991.551	86.255933
991.735	86.607666
991.918	87.506475
992.102	88.027115
992.285	88.631110
992.469	88.161180
992.652	87.579551
992.835	87.485061
993.019	87.321675
993.202	87.378129
993.385	87.049547
993.568	86.974391
993.752	87.774918
993.935	89.008556
994.118	89.667620
994.301	89.675491
994.484	89.564724
994.668	89.983634
994.851	89.451878
995.034	88.577254
995.217	89.084591
995.400	89.527739
995.583	89.249503
995.766	88.434490
995.949	87.072863
996.132	86.274004
996.315	86.661885
996.498	87.028680
996.681	87.443099
996.864	87.861228
997.047	88.372434
997.230	88.142756
997.413	88.171139
997.596	87.737341
997.778	87.448364
997.961	87.402870
998.144	87.830687
998.327	87.960697
998.510	88.013610
998.692	88.107507
998.875	87.941336
999.058	88.200330
999.241	88.039051
999.423	87.367600
999.606	87.598523
999.789	88.425815
999.971	88.486140
1000.154	88.245145
1000.336	88.333315
1000.519	88.466084
1000.701	88.680581
1000.884	89.503897
1001.067	90.393551
1001.249	90.485181
1001.431	90.576891
1001.614	90.603417
1001.796	90.554791
1001.979	91.706579
1002.161	92.066976
1002.344	92.178672
1002.526	92.100557
1002.708	91.274045
1002.891	90.170481
1003.073	89.525922
1003.255	90.263071
1003.438	91.585096
1003.620	92.549643
1003.802	91.703501
1003.984	90.453482
1004.166	89.858295
1004.349	89.017642
1004.531	88.833933
1004.713	89.406931
1004.895	89.631417
1005.077	89.016689
1005.259	88.672093
1005.441	88.480804
1005.623	87.733325
1005.805	87.129893
1005.987	86.813786
1006.169	87.256124
1006.351	87.121715
1006.533	86.768570
1006.715	86.422607
1006.897	86.475663
1007.079	86.554877
1007.261	86.082753
1007.443	85.417699
1007.625	84.899723
1007.806	85.567586
1007.988	85.838265
1008.170	86.193327
1008.352	87.190721
1008.534	87.917522
1008.715	88.073050
1008.897	88.841362
1009.079	90.072541
1009.260	90.983448
1009.442	91.995089
1009.624	93.222967
1009.805	93.506521
1009.987	93.661502
1010.169	92.677640
1010.350	91.748692
1010.532	91.237783
1010.713	91.866025
1010.895	91.514489
1011.076	91.102240
1011.258	91.244513
1011.439	90.240749
1011.621	89.709828
1011.802	89.975584
1011.983	90.451747
1012.165	90.730622
1012.346	90.984379
1012.527	90.844264
1012.709	90.825684
1012.890	90.961540
1013.071	90.056993
1013.253	88.459577
1013.434	88.503314
1013.615	88.004273
1013.796	88.006169
1013.978	87.829065
1014.159	87.536702
1014.340	87.938126
1014.521	88.008281
1014.702	87.645485
1014.883	87.709817
1015.064	88.361751
1015.245	88.812737
1015.427	88.581070
1015.608	88.862775
1015.789	89.182531
1015.970	88.985398
1016.151	89.066203
1016.332	88.036133
1016.512	87.782455
1016.693	86.487625
1016.874	85.476075
1017.055	84.774733
1017.236	84.912699
1017.417	85.007382
1017.598	85.280425
1017.779	84.474609
1017.959	84.102659
1018.140	84.206373
1018.321	84.492884
1018.502	85.345728
1018.682	86.984465
1018.863	87.654418
1019.044	88.186359
1019.224	88.038253
1019.405	88.051428
1019.586	87.615618
1019.766	88.252289
1019.947	89.369509
1020.127	89.619686
1020.308	89.769280
1020.488	89.975290
1020.669	89.962167
1020.849	89.999155
1021.030	89.908563
1021.210	90.462260
1021.391	91.421552
1021.571	91.461181
1021.752	91.596028
1021.932	91.241123
1022.112	90.745400
1022.293	90.153631
1022.473	89.385948
1022.653	89.050090
1022.834	89.551255
1023.014	89.834133
1023.194	89.705903
1023.374	89.469111
1023.555	90.194688
1023.735	90.373221
1023.915	89.674046
1024.095	89.067423
1024.275	90.047640
1024.455	90.532208
1024.635	90.382873
1024.816	89.494428
1024.996	89.031569
1025.176	89.295724
1025.356	88.768240
1025.536	88.193448
1025.716	86.937404
1025.896	87.288801
1026.076	87.944498
1026.256	87.226160
1026.436	87.214464
1026.615	87.196372
1026.795	87.438558
1026.975	87.685271
1027.155	87.835221
1027.335	88.625363
1027.515	89.924469
1027.695	91.736331
1027.874	92.051867
1028.054	91.990206
1028.234	92.041684
1028.413	92.338552
1028.593	91.348631
1028.773	90.885870
1028.953	91.537641
1029.132	92.150097
1029.312	92.212081
1029.491	91.596806
1029.671	90.811051
1029.851	91.725072
1030.030	92.623383
1030.210	93.142500
1030.389	92.783198
1030.569	93.117742
1030.748	92.993069
1030.928	91.926434
1031.107	91.187603
1031.286	91.017660
1031.466	89.967882
1031.645	88.796606
1031.825	87.471163
1032.004	87.763151
1032.183	87.723262
1032.363	87.356827
1032.542	88.423812
1032.721	89.599652
1032.900	89.883899
1033.080	89.997997
1033.259	89.081688
1033.438	90.014088
1033.617	90.946232
1033.796	90.996666
1033.975	89.875756
1034.155	90.233498
1034.334	90.432748
1034.513	89.933551
1034.692	88.670846
1034.871	89.003273
1035.050	88.987474
1035.229	89.988464
1035.408	89.492941
1035.587	89.179997
1035.766	89.041219
1035.945	88.480978
1036.124	87.818785
1036.303	87.785536
1036.481	88.997054
1036.660	90.573958
1036.839	90.643482
1037.018	90.223168
1037.197	90.261859
1037.376	90.271246
1037.554	90.232502
1037.733	90.124362
1037.912	90.727131
1038.091	90.191473
1038.269	89.797105
1038.448	88.301991
1038.627	87.578496
1038.805	85.877859
1038.984	85.596473
1039.162	84.517503
1039.341	84.269770
1039.520	84.633253
1039.698	84.782907
1039.877	84.469821
1040.055	85.347356
1040.234	85.866278
1040.412	85.915864
1040.591	85.898690
1040.769	87.298507
1040.947	87.834021
1041.126	88.740583
1041.304	89.671578
1041.483	90.123323
1041.661	90.757078
1041.839	90.415413
1042.017	89.879670
1042.196	90.440205
1042.374	92.454794
1042.552	91.982998
1042.730	90.978976
1042.909	90.170264
1043.087	89.342087
1043.265	88.879185
1043.443	89.329025
1043.621	89.138048
1043.799	89.921735
1043.978	91.045286
1044.156	91.465684
1044.334	90.249640
1044.512	90.421858
1044.690	91.063205
1044.868	91.359237
1045.046	90.866787
1045.224	90.188610
1045.402	88.420718
1045.580	88.614338
1045.758	88.733607
1045.935	87.887877
1046.113	86.257419
1046.291	85.610844
1046.469	85.862695
1046.647	85.691169
1046.825	85.824686
1047.002	87.067916
1047.180	88.257158
1047.358	89.412605
1047.536	88.113903
1047.713	88.457820
1047.891	88.574552
1048.069	89.002109
1048.246	89.601750
1048.424	88.945173
1048.602	88.481041
1048.779	88.296942
1048.957	87.768430
1049.134	88.071268
1049.312	88.252301
1049.489	88.952384
1049.667	88.080197
1049.844	88.330867
1050.022	87.653444
1050.199	86.637391
1050.377	86.900200
1050.554	88.020242
1050.731	88.060782
1050.909	87.847074
1051.086	86.607282
1051.263	85.601304
1051.441	86.261829
1051.618	87.132014
1051.795	86.143038
1051.973	86.677649
1052.150	86.830567
1052.327	86.171118
1052.504	85.122680
1052.681	84.834360
1052.859	84.662160
1053.036	85.067956
1053.213	85.652085
1053.390	85.121357
1053.567	84.560767
1053.744	85.992768
1053.921	86.229738
1054.098	86.582694
1054.275	87.966183
1054.452	88.693529
1054.629	89.259170
1054.806	89.928417
1054.983	89.870097
1055.160	90.043084
1055.337	90.137834
1055.514	90.560498
1055.691	89.727648
1055.868	89.925099
1056.044	90.152699
1056.221	89.556931
1056.398	89.264748
1056.575	89.127550
1056.751	88.899284
1056.928	89.144999
1057.105	89.438714
1057.282	89.773319
1057.458	88.847969
1057.635	88.957915
1057.812	89.013023
1057.988	88.922574
1058.165	88.552126
1058.341	88.892078
1058.518	89.326026
1058.694	89.208499
1058.871	89.106482
1059.047	88.359003
1059.224	87.096979
1059.401	87.361433
1059.577	87.425080
1059.753	86.865327
1059.930	86.553361
1060.106	87.023823
1060.282	86.409350
1060.459	85.428981
1060.635	85.024531
1060.812	84.854568
1060.988	84.978310
1061.164	85.117475
1061.340	84.875123
1061.517	83.786392
1061.693	83.611668
1061.869	83.953914
1062.045	83.310500
1062.221	82.531657
1062.398	82.426333
1062.574	82.682852
1062.750	82.533870
1062.926	82.398027
1063.102	83.266917
1063.278	84.149522
1063.454	85.385296
1063.630	85.856324
1063.806	85.591659
1063.982	85.192366
1064.158	85.923344
1064.334	86.912295
1064.510	86.979667
1064.686	87.731701
1064.862	87.462903
1065.038	86.055689
1065.214	85.180527
1065.389	84.647661
1065.565	83.681225
1065.741	83.237029
1065.917	83.960062
1066.093	84.107669
1066.268	83.572668
1066.444	83.375449
1066.620	82.531215
1066.795	82.398721
1066.971	83.322639
1067.147	83.428833
1067.322	83.542711
1067.498	84.248879
1067.673	84.473136
1067.849	84.089130
1068.025	83.427118
1068.200	82.876194
1068.376	82.405367
1068.551	82.614512
1068.727	83.033422
1068.902	82.822819
1069.078	82.604380
1069.253	81.698973
1069.428	81.180795
1069.604	80.882288
1069.779	80.491905
1069.954	81.097792
1070.130	81.698501
1070.305	82.381273
1070.480	82.037219
1070.656	81.518192
1070.831	80.935088
1071.006	81.052621
1071.181	81.997768
1071.357	82.462822
1071.532	82.472854
1071.707	82.780441
1071.882	82.008318
1072.057	81.615740
1072.232	80.832934
1072.407	80.675965
1072.582	81.222384
1072.757	82.203295
1072.932	82.073289
1073.107	81.665844
1073.282	80.511419
1073.457	80.384820
1073.632	79.542745
1073.807	79.666388
1073.982	79.723746
1074.157	80.302205
1074.332	79.775825
1074.507	78.924323
1074.682	78.193411
1074.856	77.599693
1075.031	76.674136
1075.206	77.485352
1075.381	77.362057
1075.556	78.001081
1075.730	78.609066
1075.905	78.591282
1076.080	78.483601
1076.254	79.459041
1076.429	79.569950
1076.604	79.114999
1076.778	79.343020
1076.953	80.719486
1077.127	81.334871
1077.302	82.496619
1077.477	83.074527
1077.651	82.588391
1077.826	81.943999
1078.000	81.278544
1078.175	80.313096
1078.349	80.222372
1078.523	80.641204
1078.698	81.093367
1078.872	80.290067
1079.047	79.456698
1079.221	78.835499
1079.395	77.994973
1079.570	77.901459
1079.744	78.070428
1079.918	78.146231
1080.092	78.527772
1080.267	78.832862
1080.441	79.469998
1080.615	79.771951
1080.789	80.264903
1080.963	80.177221
1081.137	79.772238
1081.312	80.074594
1081.486	80.554148
1081.660	81.212033
1081.834	81.781687
1082.008	81.791104
1082.182	81.574179
1082.356	80.816854
1082.530	80.809965
1082.704	80.641944
1082.878	80.767523
1083.052	80.926859
1083.226	81.512357
1083.400	81.405506
1083.573	80.949011
1083.747	80.289866
1083.921	80.122502
1084.095	80.386309
1084.269	80.452117
1084.443	79.947679
1084.616	79.297406
1084.790	79.217053
1084.964	79.291100
1085.138	78.518582
1085.311	77.915703
1085.485	77.180875
1085.659	77.325078
1085.832	77.589741
1086.006	76.855165
1086.179	76.464210
1086.353	76.559037
1086.527	77.212436
1086.700	76.567624
1086.874	76.070712
1087.047	76.219204
1087.221	76.159614
1087.394	76.934437
1087.568	77.438024
1087.741	77.229716
1087.914	77.150905
1088.088	76.702893
1088.261	76.106971
1088.435	76.135056
1088.608	76.630782
1088.781	76.320383
1088.954	75.620270
1089.128	75.947256
1089.301	75.800673
1089.474	75.039146
1089.647	75.279832
1089.821	75.976260
1089.994	76.664425
1090.167	75.969771
1090.340	75.351642
1090.513	75.517070
1090.686	75.998743
1090.859	76.491904
1091.032	76.287893
1091.206	76.304762
1091.379	76.562751
1091.552	76.265904
1091.725	76.342630
1091.898	75.732189
1092.071	76.334993
1092.244	75.842671
1092.416	74.897184
1092.589	73.614739
1092.762	73.242294
1092.935	73.438405
1093.108	73.392815
1093.281	72.941339
1093.453	72.535876
1093.626	71.791752
1093.799	72.047267
1093.972	72.201258
1094.145	72.619233
1094.317	73.117480
1094.490	74.173296
1094.663	74.664542
1094.835	74.094267
1095.008	73.310437
1095.181	73.415771
1095.353	73.064813
1095.526	73.160086
1095.698	73.219222
1095.871	72.829357
1096.043	72.711235
1096.216	72.412539
1096.388	72.053169
1096.561	71.489460
1096.733	71.506890
1096.906	71.757394
1097.078	71.554057
1097.250	71.474660
1097.423	71.176050
1097.595	71.283652
1097.768	71.167805
1097.940	71.068069
1098.112	71.242480
1098.284	71.753707
1098.457	71.850317
1098.629	71.096617
1098.801	70.376482
1098.973	70.237225
1099.146	70.453697
1099.318	70.857800
1099.490	70.706638
1099.662	70.664983
1099.834	70.306055
1100.006	69.862621
1100.178	69.271324
1100.350	69.241025
1100.522	68.990010
1100.694	69.043531
1100.866	68.613922
1101.038	68.668282
1101.210	68.504927
1101.382	67.997240
1101.554	68.102144
1101.726	68.138453
1101.898	68.406625
1102.070	68.120310
1102.241	67.670173
1102.413	68.140617
1102.585	68.313289
1102.757	68.805494
1102.929	68.870971
1103.100	68.926000
1103.272	69.197144
1103.444	69.310089
1103.616	69.829147
1103.787	69.493162
1103.959	69.125529
1104.130	69.028241
1104.302	68.748165
1104.474	68.552604
1104.645	68.021463
1104.817	67.450767
1104.988	67.086036
1105.160	67.034726
1105.331	66.634484
1105.503	66.047317
1105.674	66.301283
1105.846	66.793334
1106.017	66.937968
1106.189	67.075670
1106.360	67.236775
1106.531	67.174714
1106.703	67.173320
1106.874	67.496534
1107.045	67.595912
1107.217	67.413371
1107.388	67.139790
1107.559	67.055714
1107.730	66.970649
1107.902	67.261342
1108.073	67.439733
1108.244	67.151273
1108.415	66.885887
1108.586	66.503053
1108.757	65.744511
1108.929	65.046070
1109.100	65.107499
1109.271	65.243927
1109.442	65.012162
1109.613	64.688062
1109.784	64.532418
1109.955	64.413702
1110.126	64.403637
1110.297	64.499863
1110.468	64.535187
1110.639	64.757345
1110.809	64.831453
1110.980	64.712842
1111.151	64.749170
1111.322	64.347783
1111.493	64.265016
1111.664	63.999291
1111.834	63.600777
1112.005	63.268347
1112.176	63.189124
1112.347	62.984458
1112.517	62.398219
1112.688	61.789725
1112.859	61.452066
1113.029	61.229180
1113.200	61.271042
1113.371	61.176867
1113.541	60.701196
1113.712	60.537531
1113.882	60.967462
1114.053	60.935280
1114.223	61.329774
1114.394	61.406617
1114.564	61.117566
1114.735	60.916332
1114.905	60.601240
1115.076	60.396519
1115.246	60.391212
1115.416	60.804073
1115.587	61.050357
1115.757	61.017922
1115.927	61.391868
1116.098	61.902395
1116.268	62.498059
1116.438	62.590147
1116.609	62.363033
1116.779	62.333597
1116.949	62.676616
1117.119	62.678673
1117.289	61.756719
1117.459	61.251766
1117.630	61.068790
1117.800	60.548524
1117.970	59.104980
1118.140	58.627259
1118.310	59.021547
1118.480	59.010599
1118.650	59.190852
1118.820	58.848793
1118.990	58.202170
1119.160	58.308838
1119.330	58.096176
1119.500	57.244774
1119.670	57.028037
1119.840	57.838753
1120.010	58.107269
1120.179	58.047741
1120.349	58.221548
1120.519	57.681980
1120.689	57.436529
1120.859	57.440943
1121.028	57.197269
1121.198	57.230175
1121.368	58.106611
1121.538	58.617327
1121.707	58.492073
1121.877	58.045893
1122.047	57.965598
1122.216	58.010433
1122.386	58.042466
1122.555	57.760818
1122.725	57.791082
1122.894	58.386026
1123.064	58.880126
1123.233	58.383731
1123.403	58.081268
1123.573	57.245457
1123.742	56.635787
1123.911	56.242041
1124.081	55.762769
1124.250	55.731299
1124.419	55.683995
1124.589	55.791198
1124.758	55.713413
1124.927	55.358854
1125.097	55.219584
1125.266	54.712988
1125.435	55.064950
1125.605	55.698430
1125.774	56.062015
1125.943	56.115148
1126.112	56.023793
1126.281	56.419025
1126.450	56.363785
1126.620	56.065472
1126.789	55.823073
1126.958	56.259468
1127.127	56.872278
1127.296	56.868932
1127.465	56.663378
1127.634	56.653194
1127.803	56.463819
1127.972	55.964215
1128.141	55.303310
1128.310	55.056276
1128.479	54.538783
1128.648	54.504197
1128.817	53.986663
1128.985	53.327814
1129.154	52.825835
1129.323	52.004695
1129.492	51.483161
1129.661	51.907078
1129.829	52.465384
1129.998	52.894575
1130.167	52.425703
1130.336	52.451727
1130.504	52.390410
1130.673	52.565811
1130.842	53.146613
1131.010	53.939447
1131.179	54.454080
1131.347	54.855861
1131.516	54.391534
1131.685	53.777357
1131.853	53.339396
1132.022	54.092446
1132.190	54.209393
1132.359	53.899568
1132.527	53.082936
1132.696	52.205062
1132.864	51.361125
1133.032	50.911556
1133.201	50.517505
1133.369	50.378186
1133.537	50.490154
1133.706	50.394344
1133.874	49.580565
1134.042	49.299166
1134.211	49.077604
1134.379	48.693983
1134.547	48.618788
1134.715	48.741023
1134.884	48.965760
1135.052	48.602487
1135.220	48.463200
1135.388	48.790714
1135.556	48.853878
1135.724	49.253399
1135.892	49.274803
1136.060	49.388995
1136.228	49.800257
1136.396	49.476866
1136.564	49.327724
1136.732	48.920390
1136.900	48.571681
1137.068	48.370382
1137.236	48.171374
1137.404	47.709609
1137.572	47.137848
1137.740	46.757174
1137.908	46.623303
1138.076	46.513938
1138.243	46.839938
1138.411	46.927824
1138.579	47.195895
1138.747	47.700144
1138.914	47.717259
1139.082	47.236589
1139.250	47.468538
1139.417	47.171956
1139.585	47.513831
1139.753	47.329249
1139.920	47.285467
1140.088	47.058366
1140.256	46.665498
1140.423	46.386743
1140.591	45.926630
1140.758	45.930486
1140.926	46.127978
1141.093	46.022937
1141.261	46.553322
1141.428	45.978207
1141.596	45.982752
1141.763	45.684960
1141.930	45.476238
1142.098	45.328409
1142.265	45.459026
1142.432	45.416767
1142.600	45.357597
1142.767	44.865679
1142.934	44.578451
1143.102	44.227619
1143.269	43.919690
1143.436	43.703143
1143.603	43.661361
1143.771	43.246390
1143.938	43.353481
1144.105	43.223610
1144.272	42.677806
1144.439	41.928085
1144.606	41.824285
1144.773	41.809984
1144.940	41.353726
1145.107	41.494486
1145.274	41.391602
1145.441	41.267358
1145.608	41.282610
1145.775	40.904787
1145.942	40.308646
1146.109	40.279046
1146.276	40.739399
1146.443	40.864674
1146.610	41.208677
1146.776	41.767730
1146.943	41.888498
1147.110	42.389317
1147.277	42.601367
1147.444	42.981621
1147.610	43.248246
1147.777	43.317347
1147.944	43.595318
1148.110	43.762737
1148.277	43.513900
1148.444	43.184699
1148.610	42.869728
1148.777	42.658233
1148.944	42.049032
1149.110	42.214878
1149.277	41.732277
1149.443	41.286306
1149.610	41.256814
1149.776	41.544459
1149.943	41.059205
1150.109	40.661005
1150.276	40.320763
1150.442	39.968398
1150.608	39.634459
1150.775	39.368127
1150.941	38.973042
1151.107	38.963277
1151.274	39.087937
1151.440	38.994454
1151.606	38.088409
1151.773	37.841072
1151.939	37.820244
1152.105	37.489190
1152.271	37.447925
1152.438	37.447805
1152.604	37.403762
1152.770	37.017649
1152.936	37.130579
1153.102	36.773339
1153.268	36.628769
1153.434	36.753148
1153.600	36.675983
1153.766	36.332701
1153.932	35.785134
1154.098	35.353836
1154.264	35.316452
1154.430	34.976599
1154.596	34.865490
1154.762	34.642781
1154.928	34.625482
1155.094	34.396739
1155.260	34.302786
1155.426	34.620282
1155.591	34.734698
1155.757	34.951813
1155.923	35.392032
1156.089	35.723439
1156.255	35.767090
1156.420	35.714604
1156.586	35.348651
1156.752	35.342895
1156.917	35.545435
1157.083	35.824388
1157.249	35.460347
1157.414	35.442330
1157.580	35.904639
1157.745	35.913759
1157.911	35.248691
1158.076	35.456844
1158.242	35.621775
1158.407	35.582433
1158.573	35.464994
1158.738	34.962755
1158.904	34.214728
1159.069	33.822585
1159.235	33.622736
1159.400	32.991647
1159.565	32.717588
1159.731	32.531371
1159.896	32.328396
1160.061	32.031401
1160.227	32.023051
1160.392	31.747106
1160.557	31.642139
1160.722	31.882449
1160.888	31.981205
1161.053	32.038834
1161.218	32.353960
1161.383	31.959210
1161.548	32.092763
1161.713	31.997758
1161.878	31.975034
1162.043	32.277945
1162.208	32.503417
1162.374	32.257165
1162.539	32.052799
1162.704	32.018769
1162.869	32.072174
1163.033	32.143209
1163.198	32.154759
1163.363	31.798803
1163.528	31.395081
1163.693	31.162156
1163.858	30.735132
1164.023	30.201857
1164.188	30.491551
1164.353	30.562458
1164.517	30.300412
1164.682	29.701134
1164.847	28.739097
1165.011	28.828256
1165.176	28.720167
1165.341	28.524281
1165.506	28.620100
1165.670	28.716844
1165.835	29.721252
1166.000	30.003487
1166.164	29.677817
1166.329	29.514806
1166.493	29.731285
1166.658	30.637599
1166.822	30.654958
1166.987	30.695385
1167.151	30.580863
1167.316	30.251848
1167.480	29.443024
1167.645	28.467237
1167.809	27.946910
1167.973	28.093401
1168.138	27.789376
1168.302	27.903593
1168.466	27.569435
1168.631	27.543692
1168.795	27.650130
1168.959	28.154872
1169.124	28.437570
1169.288	28.740665
1169.452	28.296896
1169.616	28.209520
1169.780	27.770437
1169.944	27.968569
1170.109	27.501519
1170.273	26.733876
1170.437	26.581857
1170.601	26.280676
1170.765	25.568919
1170.929	25.002252
1171.093	25.077323
1171.257	25.204483
1171.421	24.588562
1171.585	24.584400
1171.749	24.706398
1171.913	24.955066
1172.077	25.121041
1172.240	24.826000
1172.404	24.838889
1172.568	25.048140
1172.732	25.023714
1172.896	24.909432
1173.060	24.667576
1173.223	24.688526
1173.387	24.595342
1173.551	24.355386
1173.715	24.137833
1173.878	24.169185
1174.042	23.995185
1174.206	23.668796
1174.369	23.128228
1174.533	23.181590
1174.696	22.945579
1174.860	23.068607
1175.023	23.274157
1175.187	23.311931
1175.351	23.034981
1175.514	22.856492
1175.677	22.679542
1175.841	22.635905
1176.004	22.547246
1176.168	22.563633
1176.331	22.859632
1176.495	22.767791
1176.658	22.668248
1176.821	22.660537
1176.985	22.257458
1177.148	22.311277
1177.311	22.294749
1177.474	22.074108
1177.638	22.165436
1177.801	22.250216
1177.964	22.517515
1178.127	22.128449
1178.291	21.786343
1178.454	21.755499
1178.617	21.647657
1178.780	21.772787
1178.943	21.480250
1179.106	21.090325
1179.269	21.381610
1179.432	21.375930
1179.595	21.608643
1179.758	21.408472
1179.921	21.185888
1180.084	21.481299
1180.247	21.635468
1180.410	21.935370
1180.573	22.147579
1180.736	22.454085
1180.899	22.740419
1181.061	22.793842
1181.224	23.107606
1181.387	23.220837
1181.550	23.448174
1181.713	23.986440
1181.875	23.869556
1182.038	23.173323
1182.201	22.429314
1182.363	22.154554
1182.526	21.592448
1182.689	21.330860
1182.851	20.967090
1183.014	20.456162
1183.177	20.366259
1183.339	20.434257
1183.502	19.870077
1183.664	19.871177
1183.827	20.257040
1183.989	20.406045
1184.152	20.459878
1184.314	20.927013
1184.477	21.164250
1184.639	21.588011
1184.801	21.433847
1184.964	21.029801
1185.126	20.866734
1185.288	20.620316
1185.451	20.223933
1185.613	20.043104
1185.775	20.398860
1185.938	20.543554
1186.100	20.335378
1186.262	20.490101
1186.424	20.156875
1186.586	20.043136
1186.749	20.097493
1186.911	19.986450
1187.073	19.692360
1187.235	20.227796
1187.397	20.191591
1187.559	20.228025
1187.721	19.977509
1187.883	19.921484
1188.045	19.482495
1188.207	19.465507
1188.369	19.835174
1188.531	19.573954
1188.693	19.724968
1188.855	20.284481
1189.017	19.649591
1189.179	20.154391
1189.341	20.144428
1189.502	20.286433
1189.664	20.195933
1189.826	20.678670
1189.988	20.947372
1190.150	20.721822
1190.311	21.122199
1190.473	20.845623
1190.635	20.842602
1190.796	21.222052
1190.958	21.064125
1191.120	20.787780
1191.281	20.786437
1191.443	20.807590
1191.604	20.654886
1191.766	20.400933
1191.928	20.189731
1192.089	19.760992
1192.251	20.010726
1192.412	20.032935
1192.574	20.172560
1192.735	20.218863
1192.896	20.549362
1193.058	20.468429
1193.219	20.737464
1193.381	21.032068
1193.542	21.297256
1193.703	21.874726
1193.865	22.227403
1194.026	22.208303
1194.187	22.441415
1194.349	22.884925
1194.510	22.658850
1194.671	22.056401
1194.832	21.842538
1194.993	21.585374
1195.155	21.257065
1195.316	20.735380
1195.477	19.842510
1195.638	19.310494
1195.799	19.092496
1195.960	18.821641
1196.121	18.407332
1196.282	18.531867
1196.443	18.919345
1196.604	19.291715
1196.765	19.478621
1196.926	19.140817
1197.087	19.371980
1197.248	19.950015
1197.409	20.210471
1197.570	20.279225
1197.730	20.199167
1197.891	20.087310
1198.052	20.102767
1198.213	20.279450
1198.374	19.777638
1198.534	19.510402
1198.695	19.599314
1198.856	19.207375
1199.016	19.284210
1199.177	19.603016
1199.338	19.659075
1199.498	20.067868
1199.659	20.035837
1199.820	20.112681
1199.980	20.245790
1200.141	20.851922
1200.301	21.671282
1200.462	21.974100
1200.622	22.088633
1200.783	21.934372
1200.943	22.040932
1201.104	22.257241
1201.264	22.040922
1201.424	22.112332
1201.585	21.835807
1201.745	21.012039
1201.906	20.530566
1202.066	20.882805
1202.226	21.190762
1202.386	21.302525
1202.547	21.128866
1202.707	20.778700
1202.867	20.968814
1203.027	21.202449
1203.188	21.209658
1203.348	21.070200
1203.508	21.361787
1203.668	21.852399
1203.828	21.149330
1203.988	20.885956
1204.148	21.029518
1204.308	21.750758
1204.468	22.188270
1204.628	21.730182
1204.788	21.800586
1204.948	21.931123
1205.108	22.695796
1205.268	23.206443
1205.428	23.073770
1205.588	22.598517
1205.748	22.536774
1205.908	22.924614
1206.068	22.407313
1206.228	21.883615
1206.387	21.976264
1206.547	21.694796
1206.707	21.536733
1206.867	21.569917
1207.026	21.841462
1207.186	22.019484
1207.346	22.325775
1207.505	22.149778
1207.665	21.646022
1207.825	21.438943
1207.984	22.128486
1208.144	22.607306
1208.303	23.152717
1208.463	23.250686
1208.622	23.067366
1208.782	22.823076
1208.941	22.523391
1209.101	22.663974
1209.260	22.877347
1209.420	23.345118
1209.579	23.836025
1209.739	23.877650
1209.898	23.880159
1210.057	23.785337
1210.217	24.116985
1210.376	23.674358
1210.535	23.412574
1210.694	23.769003
1210.854	23.790936
1211.013	23.998521
1211.172	24.008449
1211.331	23.968068
1211.490	23.953867
1211.650	24.091758
1211.809	23.813569
1211.968	23.605618
1212.127	24.009813
1212.286	23.992906
1212.445	23.902746
1212.604	24.153059
1212.763	24.616786
1212.922	24.790854
1213.081	24.994904
1213.240	24.988621
1213.399	24.700936
1213.558	24.966210
1213.717	25.137277
1213.876	25.240224
1214.035	25.816634
1214.194	26.248591
1214.352	26.566214
1214.511	26.452752
1214.670	26.882847
1214.829	26.969159
1214.988	26.897861
1215.146	27.002735
1215.305	26.980430
1215.464	27.007500
1215.622	26.716544
1215.781	26.048003
1215.940	25.759611
1216.098	25.681189
1216.257	25.416868
1216.415	25.167695
1216.574	24.942938
1216.732	25.405422
1216.891	25.499392
1217.049	25.143605
1217.208	25.016842
1217.366	25.825501
1217.525	26.352291
1217.683	26.443436
1217.842	26.589164
1218.000	26.907633
1218.158	26.870536
1218.317	26.887343
1218.475	26.385967
1218.633	26.098992
1218.792	26.548846
1218.950	27.115691
1219.108	26.806245
1219.266	27.157308
1219.425	27.407342
1219.583	27.153896
1219.741	27.145859
1219.899	27.556109
1220.057	27.881940
1220.215	28.500515
1220.373	29.328895
1220.531	29.460210
1220.689	29.345817
1220.847	29.288716
1221.005	28.770392
1221.163	28.306253
1221.322	28.261289
1221.479	28.251899
1221.637	28.028416
1221.795	27.875639
1221.953	27.317225
1222.111	26.938020
1222.269	26.867900
1222.427	27.020700
1222.584	27.231938
1222.742	27.555979
1222.900	27.989526
1223.058	28.616888
1223.216	29.139501
1223.373	29.167421
1223.531	29.555012
1223.689	30.117252
1223.846	30.070325
1224.004	29.989514
1224.162	30.119505
1224.319	30.192846
1224.477	30.437661
1224.634	30.483751
1224.792	30.131314
1224.949	29.265602
1225.107	28.872073
1225.264	28.574408
1225.422	28.318169
1225.579	28.797481
1225.737	28.991598
1225.894	28.487738
1226.052	28.317051
1226.209	27.769660
1226.366	27.539474
1226.523	27.665491
1226.681	28.196215
1226.838	28.416045
1226.995	28.464305
1227.153	28.320942
1227.310	27.806303
1227.467	27.558498
1227.624	28.011168
1227.781	28.439667
1227.938	29.458264
1228.096	30.239259
1228.253	30.405008
1228.410	30.483161
1228.567	30.674216
1228.724	30.633673
1228.881	30.700086
1229.038	31.047817
1229.195	31.397811
1229.352	31.356362
1229.509	30.806167
1229.666	30.365415
1229.823	30.228381
1229.980	29.687674
1230.136	29.072718
1230.293	29.148637
1230.450	29.822762
1230.607	30.889199
1230.764	31.205322
1230.921	31.113272
1231.077	31.043197
1231.234	31.281100
1231.391	31.319504
1231.547	31.303635
1231.704	31.950642
1231.861	32.461232
1232.018	32.628449
1232.174	32.512771
1232.331	31.854693
1232.487	31.955224
1232.644	32.045228
1232.800	32.262834
1232.957	32.679135
1233.113	32.582267
1233.270	32.822119
1233.426	33.091718
1233.583	33.419895
1233.739	33.338069
1233.896	33.473186
1234.052	33.979151
1234.208	34.355682
1234.365	34.762584
1234.521	35.136058
1234.677	35.381555
1234.834	35.890170
1234.990	35.865056
1235.146	35.271822
1235.302	35.509714
1235.459	35.860141
1235.615	35.840013
1235.771	35.377311
1235.927	34.702684
1236.083	34.368095
1236.239	33.821461
1236.396	33.501043
1236.552	33.468043
1236.708	32.912197
1236.864	33.242948
1237.020	33.262878
1237.176	33.222452
1237.332	33.434293
1237.488	33.835862
1237.644	33.815828
1237.799	34.270029
1237.955	34.816868
1238.111	34.950178
1238.267	35.095031
1238.423	36.066831
1238.579	36.674972
1238.734	36.953631
1238.890	36.866587
1239.046	36.912167
1239.202	36.874047
1239.357	37.308613
1239.513	37.435571
1239.669	37.658931
1239.824	37.853062
1239.980	37.802787
1240.136	36.988352
1240.291	36.429632
1240.447	36.192828
1240.603	37.095059
1240.758	37.838283
1240.914	38.196878
1241.069	38.356602
1241.225	38.257732
1241.380	37.973403
1241.535	37.960172
1241.691	38.153861
1241.846	38.230375
1242.002	37.915821
1242.157	38.345525
1242.313	37.816556
1242.468	36.911895
1242.623	36.940850
1242.778	36.724623
1242.934	36.800603
1243.089	37.152232
1243.244	36.931101
1243.399	36.356232
1243.554	36.754999
1243.710	37.713396
1243.865	37.046957
1244.020	36.548158
1244.175	36.482180
1244.330	36.350777
1244.485	37.424610
1244.640	38.241959
1244.795	38.614093
1244.950	38.933343
1245.105	39.317025
1245.260	39.314553
1245.415	38.864754
1245.570	39.417363
1245.725	39.963318
1245.880	40.281346
1246.035	40.360275
1246.190	39.445569
1246.345	38.658065
1246.499	38.439887
1246.654	38.802681
1246.809	39.113910
1246.964	39.029585
1247.118	38.898947
1247.273	38.688864
1247.428	38.718507
1247.583	38.859617
1247.737	38.868772
1247.892	39.226621
1248.047	39.503334
1248.201	38.718478
1248.356	38.701013
1248.510	38.688336
1248.665	39.519442
1248.819	40.223385
1248.974	40.412998
1249.128	41.315421
1249.283	42.054443
1249.437	42.461492
1249.592	43.071985
1249.746	43.000754
1249.900	43.512072
1250.055	43.674364
1250.209	43.591014
1250.363	43.450394
1250.518	43.829025
1250.672	44.811674
1250.826	44.241391
1250.981	43.687515
1251.135	43.573181
1251.289	43.108284
1251.443	43.208988
1251.597	43.315122
1251.751	43.052982
1251.906	43.757586
1252.060	43.798614
1252.214	43.192028
1252.368	42.280735
1252.522	42.730933
1252.676	43.456711
1252.830	43.698785
1252.984	43.500347
1253.138	43.409540
1253.292	43.998770
1253.446	44.760327
1253.600	44.628620
1253.754	44.670712
1253.907	44.959973
1254.061	44.828701
1254.215	44.555584
1254.369	44.159094
1254.523	44.227913
1254.677	44.506032
1254.830	44.619315
1254.984	44.451358
1255.138	43.951732
1255.292	43.941471
1255.445	44.088258
1255.599	43.981762
1255.752	44.651421
1255.906	45.388262
1256.060	45.569524
1256.213	44.902968
1256.367	44.825651
1256.520	44.944903
1256.674	45.465762
1256.827	45.764716
1256.981	45.599559
1257.134	45.616154
1257.288	46.680130
1257.441	46.393411
1257.594	45.820615
1257.748	45.722870
1257.901	47.053958
1258.055	47.786275
1258.208	48.702660
1258.361	48.271737
1258.515	47.412738
1258.668	46.948746
1258.821	47.014813
1258.974	46.404617
1259.127	46.465247
1259.281	46.139336
1259.434	46.041902
1259.587	45.049067
1259.740	44.214990
1259.893	43.219532
1260.046	43.143546
1260.199	43.330799
1260.352	43.683202
1260.505	43.085259
1260.658	42.888340
1260.811	42.557289
1260.964	42.472506
1261.117	42.594821
1261.270	43.073397
1261.423	43.573625
1261.576	44.131901
1261.729	44.842749
1261.882	45.430594
1262.035	45.473771
1262.188	45.849138
1262.340	45.977455
1262.493	46.483833
1262.646	47.563388
1262.798	47.927568
1262.951	48.678066
1263.104	48.740351
1263.257	48.525878
1263.409	48.021013
1263.562	48.783026
1263.714	49.732087
1263.867	50.471010
1264.020	51.191503
1264.172	51.895825
1264.325	51.508835
1264.477	51.555333
1264.630	50.413360
1264.782	50.002803
1264.935	50.070212
1265.087	49.959491
1265.240	48.322791
1265.392	47.696443
1265.544	47.803754
1265.697	47.474027
1265.849	46.740930
1266.001	46.446085
1266.154	46.147625
1266.306	46.475237
1266.458	46.911808
1266.610	46.749421
1266.762	46.827623
1266.915	47.575293
1267.067	47.183184
1267.219	46.115862
1267.371	45.831535
1267.523	45.799654
1267.675	46.590876
1267.828	46.705788
1267.979	46.666330
1268.132	46.934560
1268.284	47.845761
1268.436	48.269819
1268.588	49.166063
1268.740	50.609423
1268.891	51.639506
1269.043	52.346701
1269.195	52.867208
1269.347	52.488476
1269.499	52.181016
1269.651	51.999523
1269.803	51.954743
1269.955	50.733752
1270.106	50.696044
1270.258	49.361710
1270.410	48.500194
1270.562	48.506448
1270.713	48.015496
1270.865	48.060548
1271.017	48.661581
1271.168	49.003453
1271.320	49.390158
1271.471	50.236129
1271.623	51.575962
1271.775	51.974370
1271.926	52.745226
1272.078	53.403721
1272.229	53.517029
1272.381	54.497152
1272.532	54.198962
1272.684	52.631522
1272.835	52.749044
1272.986	53.568309
1273.138	52.265223
1273.289	52.413862
1273.440	53.013955
1273.592	53.129330
1273.743	52.647960
1273.894	51.832693
1274.046	51.030590
1274.197	51.445946
1274.348	52.808927
1274.500	53.195176
1274.651	52.614861
1274.802	53.737154
>>>>>>>>>> END of Data <<<<<<<<<<
