Date	2025年07月03日木曜日 09時59分23秒
Spectrometers	SR401765
ダーク	使用
リファレンス	使用
積分時間[msec]	300
平均回数	1
ｽﾑｰｼﾞﾝｸﾞ	5
Electrical Dark	USE
ピクセル数	3648
計測モード	反射率
保存開始波長[nm]	598.495
保存終了波長[nm]	1274.802
保存ﾋﾟｯﾁ波長[nm]	全波長

>>>>>>>>>> Data Start <<<<<<<<<<<<
598.495	0.000000
598.713	0.000000
598.931	0.000000
599.148	0.000000
599.366	-73.070050
599.584	39.590838
599.802	57.574264
600.020	0.000000
600.238	0.000000
600.455	0.000000
600.673	0.000000
600.891	7.993865
601.109	12.551954
601.326	14.416918
601.544	14.941439
601.762	15.281500
601.979	15.207505
602.197	15.383689
602.415	15.272736
602.632	15.107348
602.850	15.078848
603.067	15.069619
603.285	15.169162
603.502	15.270672
603.720	15.356356
603.938	15.378136
604.155	15.441555
604.372	15.601566
604.590	15.764121
604.807	15.954812
605.025	16.267590
605.242	16.503917
605.460	16.732654
605.677	16.910072
605.894	17.094747
606.112	17.311894
606.329	17.496479
606.546	17.656142
606.764	17.733542
606.981	17.757248
607.198	17.631873
607.415	17.735944
607.633	17.931818
607.850	18.088036
608.067	18.307778
608.284	18.440317
608.501	18.466999
608.718	18.553630
608.935	18.712805
609.153	18.833574
609.370	19.092445
609.587	19.539709
609.804	19.569511
610.021	19.514702
610.238	19.633666
610.455	19.660766
610.672	19.790061
610.889	19.969091
611.106	20.206705
611.323	20.230292
611.540	20.294676
611.756	20.403142
611.973	20.477485
612.190	20.696771
612.407	20.987551
612.624	21.189261
612.841	21.432154
613.057	21.745751
613.274	22.014846
613.491	22.176780
613.708	22.359357
613.925	22.511753
614.141	22.613971
614.358	22.897697
614.575	23.188805
614.791	23.482830
615.008	23.848433
615.225	24.199515
615.441	24.373025
615.658	24.504050
615.874	24.644564
616.091	24.921785
616.307	25.176327
616.524	25.404246
616.740	25.561938
616.957	25.757293
617.173	25.925573
617.390	26.091309
617.606	26.225616
617.823	26.454644
618.039	26.627719
618.256	26.893986
618.472	27.173370
618.688	27.526280
618.905	27.891839
619.121	28.128789
619.337	28.337225
619.554	28.696474
619.770	28.913033
619.986	29.174493
620.202	29.322199
620.419	29.468530
620.635	29.747014
620.851	30.022165
621.067	30.206670
621.283	30.299245
621.499	30.572000
621.716	30.939043
621.932	31.080815
622.148	31.193023
622.364	31.339852
622.580	31.617979
622.796	32.076165
623.012	32.343579
623.228	32.537053
623.444	32.677785
623.660	32.902629
623.876	33.051575
624.092	33.126508
624.308	33.317241
624.524	33.658566
624.740	33.901815
624.955	34.041601
625.171	34.213190
625.387	34.543804
625.603	34.854057
625.819	35.159055
626.034	35.426249
626.250	35.792090
626.466	36.166931
626.682	36.521526
626.897	36.770974
627.113	37.063629
627.329	37.497078
627.544	37.781462
627.760	37.828744
627.976	38.066886
628.191	38.387174
628.407	38.755463
628.623	39.080463
628.838	39.315591
629.054	39.465053
629.269	39.632851
629.485	39.817306
629.700	39.959143
629.916	40.150761
630.131	40.418438
630.347	40.545377
630.562	40.640976
630.777	40.743850
630.993	40.903390
631.208	41.088318
631.424	41.268246
631.639	41.352317
631.854	41.387132
632.070	41.510958
632.285	41.734112
632.500	42.099162
632.715	42.323306
632.931	42.693315
633.146	42.933340
633.361	42.891545
633.576	42.994541
633.791	43.104429
634.007	43.305675
634.222	43.655233
634.437	44.112316
634.652	44.513573
634.867	44.734982
635.082	45.172087
635.297	45.407374
635.512	45.674860
635.727	46.127999
635.942	46.554731
636.157	47.109954
636.372	47.607930
636.587	47.975311
636.802	48.026034
637.017	47.963623
637.232	47.895449
637.447	47.899850
637.662	48.078311
637.876	48.223895
638.091	48.436001
638.306	48.643069
638.521	48.630030
638.736	48.670810
638.951	48.719581
639.165	48.862494
639.380	48.955655
639.595	49.179090
639.809	49.350780
640.024	49.473818
640.239	49.586995
640.453	49.594966
640.668	49.590339
640.883	49.870654
641.097	50.143838
641.312	50.357423
641.526	50.460987
641.741	50.740192
641.955	51.041673
642.170	51.235567
642.384	51.373298
642.599	51.666708
642.813	51.830616
643.028	52.014041
643.242	52.091538
643.457	52.133699
643.671	52.228887
643.885	52.440135
644.100	52.713181
644.314	52.952894
644.528	53.169321
644.743	53.566036
644.957	53.943739
645.171	54.664067
645.386	55.280438
645.600	55.731049
645.814	56.192635
646.028	56.704194
646.242	57.266758
646.457	57.598128
646.671	57.803390
646.885	58.073653
647.099	58.236561
647.313	58.336146
647.527	58.057673
647.741	57.812658
647.955	57.794838
648.169	57.626277
648.383	57.242639
648.597	56.956835
648.811	56.933808
649.025	57.014699
649.239	57.212291
649.453	57.369471
649.667	57.583110
649.881	57.966219
650.095	58.098016
650.309	58.173497
650.523	58.644937
650.737	59.218099
650.950	59.560859
651.164	59.725375
651.378	59.783301
651.592	59.780686
651.805	59.763123
652.019	59.676241
652.233	59.513523
652.447	59.636416
652.660	59.856311
652.874	59.796218
653.088	59.704469
653.301	59.766271
653.515	59.968870
653.728	60.350498
653.942	60.661295
654.156	60.874394
654.369	61.147847
654.583	61.471332
654.796	61.788067
655.010	61.924389
655.223	62.016441
655.437	62.203747
655.650	62.269239
655.863	62.130129
656.077	62.102478
656.290	62.146289
656.504	62.197566
656.717	62.372341
656.930	62.675622
657.144	62.884313
657.357	63.068488
657.570	63.358789
657.783	63.599822
657.997	63.879684
658.210	64.216258
658.423	64.444182
658.636	64.554609
658.849	64.809887
659.063	64.934494
659.276	64.931227
659.489	64.935398
659.702	64.949496
659.915	64.888970
660.128	64.886748
660.341	64.893586
660.554	64.865470
660.767	64.639439
660.980	64.572279
661.193	64.539347
661.406	64.398554
661.619	64.223583
661.832	64.133427
662.045	64.120899
662.258	64.304128
662.471	64.395061
662.684	64.436931
662.897	64.537368
663.110	64.744153
663.322	64.918915
663.535	65.108007
663.748	65.414915
663.961	65.645355
664.174	65.891843
664.386	66.105463
664.599	66.115560
664.812	66.193032
665.024	66.324557
665.237	66.642485
665.450	67.012352
665.662	67.318919
665.875	67.570178
666.088	67.657625
666.300	67.840183
666.513	68.029790
666.725	68.136920
666.938	68.264151
667.150	68.405682
667.363	68.359911
667.575	68.183252
667.788	67.982099
668.000	67.871728
668.213	67.790612
668.425	67.761478
668.638	67.737199
668.850	67.779077
669.062	67.962566
669.275	68.159839
669.487	68.235509
669.699	68.481934
669.912	68.733926
670.124	68.864936
670.336	68.854504
670.548	68.831750
670.761	69.017149
670.973	69.319641
671.185	69.397574
671.397	69.351203
671.609	69.192472
671.822	69.288980
672.034	69.490067
672.246	69.581709
672.458	69.694378
672.670	69.757370
672.882	69.809654
673.094	69.731366
673.306	69.687573
673.518	69.794587
673.730	69.979702
673.942	70.308220
674.154	70.366480
674.366	70.255961
674.578	70.148259
674.790	70.143097
675.002	70.275654
675.214	70.279994
675.425	70.390553
675.637	70.425586
675.849	70.481415
676.061	70.565466
676.273	70.519728
676.484	70.571380
676.696	70.703185
676.908	70.970057
677.120	71.269047
677.331	71.645182
677.543	71.945171
677.755	72.200722
677.966	72.444137
678.178	72.488919
678.389	72.361745
678.601	72.186253
678.813	71.960463
679.024	71.908912
679.236	71.815820
679.447	71.589566
679.659	71.269543
679.870	71.341801
680.082	71.375051
680.293	71.283768
680.505	71.144182
680.716	71.007830
680.927	71.217942
681.139	71.453501
681.350	71.455637
681.562	71.424090
681.773	71.568714
681.984	71.632743
682.196	71.410544
682.407	71.270437
682.618	71.355101
682.829	71.652363
683.041	72.017773
683.252	72.086284
683.463	72.192412
683.674	72.576793
683.885	72.884091
684.097	72.761513
684.308	72.628195
684.519	72.623749
684.730	72.586190
684.941	72.561659
685.152	72.547706
685.363	72.592395
685.574	72.811174
685.785	73.104392
685.996	73.040152
686.207	72.961103
686.418	73.182613
686.629	73.533124
686.840	73.756077
687.051	73.739232
687.262	73.426322
687.473	73.073044
687.684	72.915747
687.894	72.613101
688.105	72.202727
688.316	72.023701
688.527	71.966306
688.738	72.001794
688.948	71.879232
689.159	71.775769
689.370	71.953852
689.580	72.452816
689.791	72.878465
690.002	73.023342
690.212	73.310095
690.423	73.651591
690.634	73.882839
690.844	74.082478
691.055	74.247289
691.266	74.405149
691.476	74.625391
691.687	74.815036
691.897	74.755874
692.108	74.757374
692.318	74.679803
692.529	74.440820
692.739	74.310133
692.949	74.343525
693.160	74.360114
693.370	74.254540
693.581	74.327602
693.791	74.373428
694.001	74.264724
694.212	74.212903
694.422	74.215498
694.632	74.342527
694.843	74.449668
695.053	74.544050
695.263	74.449664
695.473	74.227655
695.683	74.061593
695.894	73.827902
696.104	73.593538
696.314	73.517803
696.524	73.435180
696.734	73.250308
696.944	73.222984
697.154	73.383967
697.365	73.322274
697.575	73.456133
697.785	73.779534
697.995	74.035106
698.205	74.316855
698.415	74.642666
698.625	74.918811
698.834	75.273086
699.044	75.653084
699.254	75.758891
699.464	75.829676
699.674	75.954414
699.884	75.684266
700.094	75.452724
700.304	75.344593
700.513	75.211811
700.723	75.007394
700.933	74.806889
701.143	74.509303
701.353	74.168263
701.562	73.949293
701.772	73.578307
701.982	73.267482
702.191	73.318706
702.401	73.281663
702.611	73.279708
702.820	73.226807
703.030	73.282260
703.239	73.376494
703.449	73.596710
703.659	74.111270
703.868	74.629930
704.078	75.018258
704.287	75.411014
704.497	75.636734
704.706	75.774024
704.916	76.032523
705.125	76.222051
705.334	76.288807
705.544	76.336413
705.753	76.283287
705.962	75.973513
706.172	75.641036
706.381	75.685341
706.590	75.675757
706.800	75.655594
707.009	75.767519
707.218	75.699828
707.428	75.645673
707.637	75.475466
707.846	75.236585
708.055	75.140604
708.264	75.142288
708.474	75.236869
708.683	75.192040
708.892	75.099326
709.101	74.996168
709.310	74.883861
709.519	74.725420
709.728	74.557296
709.937	74.599957
710.146	74.669066
710.355	74.524502
710.564	74.330699
710.773	74.192350
710.982	73.982932
711.191	73.926029
711.400	73.864361
711.609	73.885499
711.818	74.032548
712.027	74.263161
712.235	74.446018
712.444	74.526154
712.653	74.575956
712.862	74.640487
713.071	74.622455
713.279	74.693529
713.488	74.655983
713.697	74.814191
713.906	74.914741
714.114	74.875947
714.323	74.626849
714.532	74.338513
714.740	74.094617
714.949	74.097424
715.157	74.256840
715.366	74.378404
715.575	74.397182
715.783	74.408924
715.992	74.355304
716.200	74.179232
716.409	73.919841
716.617	73.837973
716.826	73.844634
717.034	73.844830
717.242	73.763783
717.451	73.629407
717.659	73.499930
717.868	73.373794
718.076	73.352842
718.284	73.235774
718.493	73.110872
718.701	73.098118
718.909	73.282956
719.118	73.401471
719.326	73.531955
719.534	73.623556
719.742	73.479880
719.951	73.281730
720.159	73.102967
720.367	73.004840
720.575	72.998815
720.783	73.076652
720.991	73.175042
721.199	73.094496
721.408	73.078903
721.616	73.068668
721.824	73.153782
722.032	73.309803
722.240	73.508798
722.448	73.773232
722.656	74.054029
722.864	74.207667
723.072	74.284745
723.280	74.270506
723.487	74.086755
723.695	73.811008
723.903	73.631589
724.111	73.325397
724.319	73.169799
724.527	73.027049
724.735	72.940358
724.942	72.731684
725.150	72.543640
725.358	72.506883
725.566	72.612788
725.773	72.873040
725.981	73.069118
726.189	73.046265
726.396	73.019136
726.604	72.977656
726.812	72.933291
727.019	72.849462
727.227	72.765135
727.435	72.528455
727.642	72.249123
727.850	71.956119
728.057	71.588837
728.265	71.478249
728.472	71.680941
728.680	71.917706
728.887	71.958107
729.095	71.987098
729.302	72.084115
729.509	72.176658
729.717	72.318865
729.924	72.430412
730.132	72.528050
730.339	72.610551
730.546	72.527216
730.753	72.405500
730.961	72.203249
731.168	72.026501
731.375	71.850147
731.583	71.658181
731.790	71.502012
731.997	71.481091
732.204	71.327648
732.411	71.100212
732.618	71.095787
732.826	71.127818
733.033	71.075034
733.240	71.038163
733.447	71.038275
733.654	71.012947
733.861	70.922335
734.068	70.804252
734.275	70.655125
734.482	70.668748
734.689	70.632700
734.896	70.432589
735.103	70.337390
735.310	70.230507
735.517	70.260040
735.724	70.561619
735.931	70.991677
736.137	71.237080
736.344	71.337228
736.551	71.341392
736.758	71.254564
736.965	71.347235
737.171	71.442106
737.378	71.443391
737.585	71.390079
737.792	71.250125
737.998	70.974102
738.205	70.543061
738.412	70.252451
738.618	70.190167
738.825	70.404898
739.032	70.677034
739.238	70.760661
739.445	70.804711
739.651	70.727151
739.858	70.698354
740.064	70.649159
740.271	70.621927
740.477	70.707881
740.684	70.762652
740.890	70.686371
741.097	70.382563
741.303	70.095231
741.510	69.907907
741.716	69.817773
741.922	69.841734
742.129	69.904991
742.335	70.080108
742.541	69.980523
742.748	69.793299
742.954	69.645979
743.160	69.487633
743.366	69.414004
743.573	69.146805
743.779	68.868092
743.985	68.614063
744.191	68.366030
744.397	68.109133
744.604	67.580179
744.810	67.251789
745.016	67.166971
745.222	67.187962
745.428	67.209382
745.634	67.188049
745.840	67.414694
746.046	67.638048
746.252	67.873487
746.458	67.974742
746.664	68.033720
746.870	68.343432
747.076	68.449558
747.282	68.475324
747.488	68.561803
747.694	68.695920
747.900	68.810143
748.105	68.781882
748.311	68.679554
748.517	68.517278
748.723	68.474579
748.929	68.394137
749.134	68.251434
749.340	68.229487
749.546	68.118665
749.752	67.863110
749.957	67.557475
750.163	67.098315
750.369	66.690687
750.574	66.456542
750.780	66.309354
750.985	66.162865
751.191	66.011237
751.397	65.897143
751.602	65.812695
751.808	65.681791
752.013	65.679614
752.219	65.772494
752.424	66.053341
752.630	66.149221
752.835	66.176033
753.041	66.204144
753.246	66.125362
753.451	65.986969
753.657	65.770574
753.862	65.585603
754.067	65.357657
754.273	64.973406
754.478	64.668528
754.683	64.275386
754.889	64.148644
755.094	64.094229
755.299	63.958836
755.504	64.013551
755.710	64.232192
755.915	64.428187
756.120	64.444628
756.325	64.439514
756.530	64.508286
756.735	64.368670
756.940	64.205701
757.146	64.034777
757.351	63.861394
757.556	63.821144
757.761	63.691556
757.966	63.521810
758.171	63.339608
758.376	63.218774
758.581	63.101240
758.786	63.069667
758.990	62.930797
759.195	62.840250
759.400	62.628826
759.605	62.264489
759.810	61.965774
760.015	61.770604
760.220	61.376354
760.424	60.870600
760.629	60.367345
760.834	60.087124
761.039	59.814470
761.244	59.760442
761.448	59.744979
761.653	59.757803
761.858	59.740716
762.062	59.651160
762.267	59.439614
762.472	59.481077
762.676	59.706494
762.881	59.996740
763.085	60.092747
763.290	59.944535
763.494	59.709794
763.699	59.467443
763.903	59.319351
764.108	59.285339
764.312	59.076823
764.517	58.839145
764.721	58.460314
764.926	58.056088
765.130	57.653927
765.335	57.363512
765.539	57.288549
765.743	57.240426
765.948	57.178369
766.152	57.003427
766.356	56.810460
766.560	56.913174
766.765	57.155719
766.969	57.378729
767.173	57.677569
767.377	57.890139
767.582	57.963610
767.786	57.864346
767.990	57.688561
768.194	57.605819
768.398	57.563151
768.602	57.386522
768.806	57.023443
769.010	56.631346
769.215	56.220927
769.419	55.688417
769.623	55.339028
769.827	55.069017
770.031	54.754117
770.234	54.372230
770.438	53.914890
770.642	53.527192
770.846	53.355317
771.050	53.169774
771.254	52.973675
771.458	52.907301
771.662	52.824664
771.866	52.553031
772.069	52.291376
772.273	52.181727
772.477	52.160735
772.681	52.068674
772.885	51.851415
773.088	51.441799
773.292	50.935306
773.496	50.500135
773.699	50.108229
773.903	49.779348
774.107	49.574034
774.310	49.368658
774.514	49.077918
774.717	48.861084
774.921	48.755693
775.124	48.654354
775.328	48.579403
775.531	48.577203
775.735	48.449370
775.938	48.223300
776.142	47.912474
776.345	47.706441
776.549	47.511205
776.752	47.439073
776.956	47.291856
777.159	47.066295
777.362	46.816668
777.566	46.627231
777.769	46.564128
777.972	46.383745
778.176	46.143691
778.379	46.093418
778.582	45.900321
778.785	45.804357
778.989	45.673785
779.192	45.383093
779.395	45.080139
779.598	44.821775
779.801	44.551297
780.004	44.135955
780.207	43.910881
780.411	43.814384
780.614	43.609057
780.817	43.333153
781.020	42.898269
781.223	42.262570
781.426	41.933111
781.629	41.707935
781.832	41.492715
782.035	41.193806
782.238	40.837203
782.440	40.415122
782.643	39.912825
782.846	39.451109
783.049	39.058517
783.252	38.697921
783.455	38.578353
783.658	38.317546
783.860	37.854508
784.063	37.438634
784.266	37.199984
784.469	36.950813
784.671	36.656487
784.874	36.551521
785.077	36.483915
785.279	36.331234
785.482	36.150888
785.685	35.914546
785.887	35.615434
786.090	35.344573
786.293	35.114230
786.495	34.858449
786.698	34.588646
786.900	34.305815
787.103	33.965654
787.305	33.565134
787.508	33.298268
787.710	32.865900
787.913	32.374228
788.115	32.026029
788.317	31.928193
788.520	31.741324
788.722	31.446179
788.924	31.190356
789.127	31.022997
789.329	30.735163
789.531	30.366617
789.734	30.032413
789.936	29.855114
790.138	29.591197
790.340	29.215923
790.543	28.732892
790.745	28.166561
790.947	27.666264
791.149	27.244784
791.351	26.791600
791.553	26.452566
791.756	26.217036
791.958	25.854296
792.160	25.421898
792.362	25.214403
792.564	25.022356
792.766	24.798903
792.968	24.717647
793.170	24.602690
793.372	24.366417
793.574	24.032070
793.776	23.618695
793.978	23.190750
794.180	22.940387
794.381	22.814945
794.583	22.546693
794.785	22.261520
794.987	21.955472
795.189	21.606157
795.391	21.346018
795.592	21.037577
795.794	20.757821
795.996	20.489179
796.198	20.219522
796.399	19.936230
796.601	19.655249
796.803	19.339868
797.004	19.029046
797.206	18.804158
797.407	18.632131
797.609	18.369105
797.811	18.156399
798.012	17.963976
798.214	17.769056
798.415	17.549628
798.617	17.273842
798.818	17.060859
799.020	16.892139
799.221	16.705882
799.423	16.449849
799.624	16.079094
799.826	15.778423
800.027	15.580285
800.228	15.517239
800.430	15.367666
800.631	15.194343
800.832	14.931671
801.034	14.685136
801.235	14.506247
801.436	14.309474
801.637	14.120635
801.839	14.049081
802.040	13.874292
802.241	13.584743
802.442	13.275971
802.643	13.035331
802.844	12.883965
803.046	12.740463
803.247	12.526932
803.448	12.312774
803.649	12.083314
803.850	11.939852
804.051	11.815958
804.252	11.661951
804.453	11.725977
804.654	11.655465
804.855	11.553758
805.056	11.442572
805.257	11.373616
805.458	11.325133
805.659	11.251016
805.859	11.138477
806.060	10.978052
806.261	10.912557
806.462	10.775982
806.663	10.559721
806.864	10.398671
807.064	10.392350
807.265	10.400317
807.466	10.320664
807.667	10.205607
807.867	10.102508
808.068	10.197371
808.269	10.229066
808.469	10.072816
808.670	10.098684
808.870	10.071937
809.071	9.962280
809.272	9.824082
809.472	9.622517
809.673	9.578602
809.873	9.644442
810.074	9.661020
810.274	9.581858
810.475	9.596505
810.675	9.585000
810.876	9.535031
811.076	9.585631
811.276	9.692542
811.477	9.762692
811.677	9.820715
811.878	9.874368
812.078	9.909181
812.278	9.866552
812.479	10.007783
812.679	10.042838
812.879	10.209741
813.079	10.403840
813.280	10.594160
813.480	10.793576
813.680	10.802654
813.880	10.820223
814.080	10.906237
814.280	10.995926
814.480	11.207337
814.681	11.239953
814.881	11.436956
815.081	11.504670
815.281	11.575993
815.481	11.653437
815.681	11.710422
815.881	11.826595
816.081	12.191562
816.281	12.255964
816.481	12.295780
816.681	12.356195
816.880	12.487471
817.080	12.561620
817.280	12.669939
817.480	12.803863
817.680	12.845630
817.880	12.970497
818.080	13.220200
818.279	13.216289
818.479	13.446759
818.679	13.670868
818.879	13.912928
819.078	14.176761
819.278	14.313931
819.478	14.586703
819.677	14.821414
819.877	14.989645
820.077	15.136503
820.276	15.306617
820.476	15.545973
820.675	15.785359
820.875	16.050900
821.074	16.196547
821.274	16.406380
821.473	16.719902
821.673	16.898395
821.872	17.110137
822.072	17.337095
822.271	17.537809
822.471	17.774082
822.670	18.053034
822.869	18.200095
823.069	18.353386
823.268	18.584153
823.467	18.739286
823.667	18.783910
823.866	18.920209
824.065	19.065169
824.265	19.274314
824.464	19.546494
824.663	19.739730
824.862	19.883662
825.061	20.031551
825.261	20.248075
825.460	20.612044
825.659	20.833571
825.858	21.045471
826.057	21.261018
826.256	21.483613
826.455	21.638681
826.654	21.828973
826.853	22.092949
827.052	22.359650
827.251	22.835225
827.450	23.220609
827.649	23.384464
827.848	23.566920
828.047	23.968524
828.246	24.355106
828.445	24.648507
828.644	25.084705
828.843	25.443731
829.041	25.686084
829.240	25.991994
829.439	26.239520
829.638	26.527757
829.836	26.756540
830.035	27.051379
830.234	27.260619
830.433	27.570037
830.631	27.871236
830.830	28.094317
831.029	28.358744
831.227	28.698094
831.426	28.985581
831.624	29.189008
831.823	29.369319
832.022	29.759865
832.220	30.187242
832.419	30.519274
832.617	30.707364
832.816	31.186374
833.014	31.539420
833.213	31.650348
833.411	31.956377
833.609	32.280496
833.808	32.532905
834.006	32.672603
834.205	33.022144
834.403	33.314421
834.601	33.484654
834.800	33.644558
834.998	33.525229
835.196	33.454537
835.394	33.636125
835.593	33.703304
835.791	33.780016
835.989	33.959236
836.187	34.118331
836.385	34.172506
836.584	34.271328
836.782	34.435774
836.980	34.624213
837.178	34.946876
837.376	35.254556
837.574	35.417556
837.772	35.578003
837.970	35.848143
838.168	36.168926
838.366	36.405541
838.564	36.519459
838.762	36.709840
838.960	36.897603
839.158	37.089886
839.356	37.224747
839.554	37.622668
839.752	38.116013
839.949	38.638971
840.147	39.137622
840.345	39.497680
840.543	39.936420
840.741	40.191792
840.938	40.337894
841.136	40.729211
841.334	41.065600
841.532	41.365250
841.729	41.297841
841.927	41.293316
842.125	41.314460
842.322	41.255535
842.520	41.169064
842.718	41.331988
842.915	41.573097
843.113	41.877866
843.310	41.973848
843.508	42.086578
843.705	42.203271
843.903	42.424349
844.100	42.536898
844.298	42.628707
844.495	42.756426
844.693	43.032326
844.890	43.084784
845.087	43.108586
845.285	43.086936
845.482	43.100690
845.679	43.041822
845.877	43.046165
846.074	43.031849
846.271	43.274997
846.469	43.440292
846.666	43.570145
846.863	43.693549
847.060	43.943950
847.257	44.113125
847.455	44.165753
847.652	44.309823
847.849	44.486100
848.046	44.592166
848.243	44.897692
848.440	45.193485
848.637	45.415576
848.834	45.572138
849.031	45.736347
849.228	45.894137
849.425	46.345722
849.622	46.856972
849.819	47.386639
850.016	47.987897
850.213	48.647852
850.410	49.097019
850.607	49.355147
850.804	49.600958
851.001	49.876997
851.198	49.968184
851.394	49.897555
851.591	49.843312
851.788	49.884672
851.985	49.851375
852.181	49.817077
852.378	49.806905
852.575	49.922129
852.772	49.901611
852.968	49.846043
853.165	49.894227
853.362	50.050316
853.558	50.560755
853.755	50.981232
853.951	51.347511
854.148	51.743224
854.345	51.875426
854.541	52.053653
854.738	52.155871
854.934	52.285650
855.131	52.284158
855.327	52.391513
855.523	52.452304
855.720	52.308099
855.916	52.115493
856.113	52.117343
856.309	52.025370
856.505	52.211651
856.702	52.339343
856.898	52.465812
857.094	52.587711
857.291	52.828179
857.487	52.814495
857.683	52.935283
857.879	53.136018
858.076	53.335883
858.272	53.222136
858.468	53.272103
858.664	53.473801
858.860	53.569509
859.056	53.721277
859.253	53.909875
859.449	54.375399
859.645	54.927111
859.841	55.187892
860.037	55.444042
860.233	55.483216
860.429	55.688937
860.625	55.659207
860.821	55.375974
861.017	55.124591
861.213	54.917801
861.409	54.857902
861.604	54.459672
861.800	54.002745
861.996	53.699244
862.192	53.525296
862.388	53.671386
862.584	53.801172
862.779	54.120896
862.975	54.386165
863.171	54.559622
863.367	54.638948
863.562	54.771468
863.758	55.079158
863.954	55.292602
864.149	55.571284
864.345	55.469839
864.541	55.169384
864.736	54.967054
864.932	54.674475
865.127	54.749996
865.323	54.944611
865.518	55.213591
865.714	55.370637
865.910	55.608899
866.105	56.169194
866.300	56.790541
866.496	57.282066
866.691	57.753449
866.887	58.104050
867.082	58.388993
867.277	58.541985
867.473	58.629612
867.668	58.917720
867.864	59.137176
868.059	59.159837
868.254	58.653541
868.449	58.161698
868.645	58.016807
868.840	58.036281
869.035	58.260451
869.230	58.666994
869.425	58.915438
869.621	59.015366
869.816	58.643408
870.011	58.268334
870.206	58.131840
870.401	58.380218
870.596	58.473786
870.791	58.621075
870.986	58.956423
871.181	58.931148
871.376	58.757556
871.571	58.361148
871.766	58.209903
871.961	58.423722
872.156	58.715756
872.351	58.904656
872.546	59.330339
872.741	59.695129
872.936	60.109230
873.130	60.236391
873.325	60.509420
873.520	60.887487
873.715	61.224101
873.910	61.515915
874.104	61.627157
874.299	61.876557
874.494	62.019601
874.688	61.687338
874.883	61.237014
875.078	60.837777
875.272	60.546164
875.467	60.350106
875.662	60.098780
875.856	60.030561
876.051	59.861639
876.245	59.771565
876.440	59.506373
876.634	59.551022
876.829	59.818322
877.023	60.178971
877.218	60.487445
877.412	60.974436
877.607	61.167888
877.801	61.539469
877.995	62.024303
878.190	62.498939
878.384	63.201919
878.578	63.766002
878.773	63.827090
878.967	63.691573
879.161	63.917021
879.356	63.761213
879.550	63.259807
879.744	63.077635
879.938	63.017581
880.133	62.904522
880.327	62.556587
880.521	61.945116
880.715	61.999957
880.909	62.062582
881.103	61.934692
881.297	61.890335
881.491	61.950492
881.685	62.315606
881.880	62.623027
882.073	62.780454
882.267	62.921607
882.461	63.170635
882.655	63.442224
882.849	63.483588
883.043	63.570341
883.237	64.116087
883.431	64.510306
883.625	65.185903
883.819	65.556169
884.013	65.927603
884.206	66.350727
884.400	66.497198
884.594	66.566139
884.788	66.658479
884.982	66.388902
885.175	66.791310
885.369	67.134845
885.563	67.124944
885.756	66.913558
885.950	66.860560
886.144	66.761795
886.337	66.479731
886.531	66.453720
886.724	66.824332
886.918	67.227184
887.112	67.670778
887.305	67.628249
887.499	67.401818
887.692	67.406006
887.885	67.391485
888.079	67.366047
888.272	67.393707
888.466	67.349348
888.659	67.388451
888.853	67.200693
889.046	66.821880
889.239	66.363334
889.433	65.802840
889.626	65.473853
889.819	65.112314
890.013	64.782343
890.206	64.651177
890.399	64.770380
890.592	64.732964
890.785	64.547571
890.979	64.778680
891.172	65.019153
891.365	65.450717
891.558	65.603692
891.751	65.645559
891.944	65.805149
892.137	66.106425
892.330	66.137451
892.524	65.997226
892.717	66.130001
892.910	66.392962
893.103	66.264271
893.296	66.407020
893.488	66.667212
893.681	67.177555
893.874	67.397917
894.067	67.360802
894.260	67.430459
894.453	67.200948
894.646	67.025670
894.839	66.774569
895.031	66.393522
895.224	66.343268
895.417	66.519456
895.610	66.602558
895.802	66.798659
895.995	67.008542
896.188	67.344277
896.381	67.446629
896.573	67.766925
896.766	68.028993
896.958	68.222634
897.151	68.743502
897.344	69.149251
897.536	68.783665
897.729	68.342870
897.921	68.129310
898.114	68.408932
898.306	68.282825
898.499	68.037771
898.691	68.112660
898.884	68.300324
899.076	68.304723
899.269	68.344879
899.461	68.315935
899.653	68.518709
899.846	68.831930
900.038	68.938540
900.230	68.583188
900.423	68.705340
900.615	68.726931
900.807	68.480753
901.000	68.293520
901.192	68.428965
901.384	68.271973
901.576	68.201027
901.768	68.469185
901.961	68.426502
902.153	68.395354
902.345	68.540009
902.537	68.585276
902.729	69.081186
902.921	69.459229
903.113	69.342801
903.305	69.171381
903.497	69.252747
903.689	69.078282
903.881	68.985121
904.073	68.870688
904.265	68.767697
904.457	69.163996
904.649	69.591789
904.841	69.290843
905.033	69.331882
905.224	69.916437
905.416	70.539408
905.608	70.969166
905.800	71.467747
905.992	71.421467
906.183	71.462472
906.375	71.449819
906.567	71.219395
906.759	71.101345
906.950	71.221013
907.142	71.309702
907.334	70.977296
907.525	70.695377
907.717	70.226544
907.909	69.900742
908.100	70.223199
908.292	70.425380
908.483	70.516124
908.675	70.203753
908.866	69.781074
909.058	69.288894
909.249	68.807117
909.441	68.504218
909.632	68.383209
909.824	68.604868
910.015	68.569588
910.206	68.230607
910.398	67.993672
910.589	68.080554
910.780	68.042586
910.972	68.048605
911.163	68.684623
911.354	69.365015
911.546	69.895303
911.737	70.010708
911.928	69.883472
912.119	70.014643
912.310	70.107681
912.502	70.255408
912.693	70.162514
912.884	70.406186
913.075	70.622402
913.266	70.573383
913.457	70.407769
913.648	70.320860
913.839	70.141651
914.030	70.214230
914.221	70.372398
914.412	70.580287
914.603	70.526981
914.794	70.554442
914.985	70.659271
915.176	70.795544
915.367	70.833711
915.558	70.835970
915.749	70.829583
915.940	71.430031
916.130	71.737638
916.321	71.726678
916.512	71.698582
916.703	72.088599
916.893	72.463807
917.084	72.742418
917.275	73.188618
917.466	73.584933
917.656	73.825323
917.847	73.903920
918.038	73.764111
918.228	74.076372
918.419	74.627695
918.609	75.056436
918.800	75.229847
918.990	75.023742
919.181	74.808308
919.372	74.336865
919.562	74.094097
919.753	74.082935
919.943	74.178387
920.133	73.985695
920.324	73.424425
920.514	72.990357
920.705	72.534621
920.895	72.162448
921.085	71.863330
921.276	71.755936
921.466	71.990883
921.656	72.076539
921.847	72.221685
922.037	72.612532
922.227	73.157584
922.417	73.544811
922.608	73.593922
922.798	73.807407
922.988	74.074582
923.178	74.305880
923.368	74.252606
923.558	74.038871
923.748	73.698957
923.939	73.232783
924.129	72.740652
924.319	72.138466
924.509	71.831736
924.699	71.663661
924.889	71.247960
925.079	70.744655
925.269	70.610006
925.459	70.600586
925.648	71.020654
925.838	71.446724
926.028	71.898490
926.218	72.231880
926.408	72.419946
926.598	72.503739
926.788	72.729092
926.977	73.278575
927.167	73.644552
927.357	73.975159
927.547	74.115169
927.736	73.793189
927.926	73.599422
928.116	73.516880
928.305	73.739810
928.495	74.266936
928.685	74.593737
928.874	74.593621
929.064	74.390711
929.253	74.761109
929.443	75.137373
929.633	75.797713
929.822	76.462747
930.012	76.716878
930.201	76.562956
930.391	75.729776
930.580	75.025136
930.769	74.974819
930.959	75.056506
931.148	74.974068
931.338	74.665053
931.527	74.770520
931.716	74.573092
931.906	74.247844
932.095	74.361984
932.284	74.869663
932.474	75.278306
932.663	75.511050
932.852	75.657905
933.041	75.797461
933.230	76.117357
933.420	76.214147
933.609	75.625344
933.798	75.237578
933.987	75.064482
934.176	74.756028
934.365	74.279676
934.554	74.172016
934.743	74.251735
934.932	74.122875
935.121	74.019949
935.310	74.086980
935.499	74.222712
935.688	74.582662
935.877	74.745420
936.066	74.922148
936.255	75.330714
936.444	75.788418
936.633	76.424042
936.822	76.805986
937.010	76.931509
937.199	77.115387
937.388	76.689181
937.577	76.443417
937.766	76.398611
937.954	76.583012
938.143	76.686614
938.332	76.352047
938.520	76.091081
938.709	75.775482
938.898	75.691553
939.086	75.863864
939.275	76.067346
939.464	76.878376
939.652	77.400542
939.841	77.285498
940.029	77.108030
940.218	77.111121
940.406	77.330022
940.595	77.292327
940.783	77.697571
940.972	77.907832
941.160	77.580742
941.349	77.209920
941.537	76.488490
941.725	76.041033
941.914	76.544523
942.102	76.902290
942.290	76.948287
942.479	76.861325
942.667	76.798755
942.855	76.603317
943.043	76.600409
943.232	77.125220
943.420	77.288223
943.608	77.430034
943.796	77.578796
943.984	77.147216
944.172	76.928692
944.361	76.563467
944.549	76.747995
944.737	77.255385
944.925	77.466589
945.113	77.488851
945.301	77.032430
945.489	76.728977
945.677	76.954816
945.865	76.515548
946.053	76.498472
946.241	76.773442
946.429	77.204426
946.617	77.382302
946.805	77.737174
946.992	78.310847
947.180	78.732995
947.368	78.994006
947.556	79.649424
947.744	79.406725
947.931	79.798852
948.119	80.206411
948.307	80.261259
948.495	80.185027
948.682	79.784899
948.870	79.138181
949.058	78.569591
949.245	77.993219
949.433	77.953388
949.621	77.510050
949.808	77.788217
949.996	78.297631
950.183	79.253873
950.371	79.631104
950.558	79.743187
950.746	80.457423
950.933	81.464888
951.121	81.614262
951.308	81.329530
951.496	81.102565
951.683	81.244673
951.870	81.837022
952.058	82.207269
952.245	81.082004
952.433	80.429779
952.620	79.666388
952.807	78.642625
952.994	77.587580
953.182	77.172378
953.369	77.724858
953.556	78.014617
953.743	77.850950
953.931	77.322853
954.118	76.556249
954.305	76.333505
954.492	76.145307
954.679	76.667406
954.866	76.624626
955.053	76.627393
955.240	76.985062
955.427	76.500596
955.615	76.021273
955.802	76.093356
955.989	75.966711
956.175	75.860960
956.362	75.861202
956.549	75.979896
956.736	75.687756
956.923	76.161383
957.110	76.174536
957.297	75.637941
957.484	75.833131
957.671	76.309868
957.857	76.153403
958.044	76.130840
958.231	76.024259
958.418	75.919827
958.604	75.998611
958.791	76.318161
958.978	76.079902
959.165	76.193275
959.351	76.548668
959.538	77.117053
959.724	77.357544
959.911	77.911516
960.098	78.366437
960.284	79.000913
960.471	79.378200
960.657	79.278293
960.844	79.005633
961.030	78.820116
961.217	78.542987
961.403	78.132587
961.590	77.568185
961.776	76.957132
961.963	77.536399
962.149	77.228676
962.335	76.732885
962.522	76.403396
962.708	76.269945
962.894	76.155503
963.081	76.342633
963.267	77.127461
963.453	77.717176
963.639	77.693359
963.826	77.897556
964.012	77.185213
964.198	77.155071
964.384	77.394363
964.570	77.521337
964.756	78.035808
964.943	78.471492
965.129	78.814643
965.315	78.369675
965.501	78.179006
965.687	77.993244
965.873	78.247460
966.059	78.722510
966.245	79.233670
966.431	79.948292
966.617	80.866290
966.803	80.998878
966.989	81.712800
967.174	82.213187
967.360	82.360747
967.546	82.162351
967.732	82.221370
967.918	82.477893
968.104	82.280885
968.289	82.074005
968.475	81.444766
968.661	80.791573
968.847	80.182387
969.032	79.119138
969.218	78.311283
969.404	78.149367
969.589	78.210204
969.775	78.059577
969.961	77.439890
970.146	77.391292
970.332	77.321757
970.517	77.442959
970.703	77.506517
970.888	77.909081
971.074	78.828428
971.260	80.162008
971.445	80.739158
971.630	81.067929
971.816	81.686823
972.001	81.713769
972.187	81.055802
972.372	80.514102
972.557	80.569174
972.743	80.415928
972.928	80.259013
973.113	79.708990
973.299	78.709745
973.484	78.445616
973.669	78.160242
973.854	77.879740
974.040	78.483245
974.225	79.110183
974.410	79.600581
974.595	79.494960
974.780	79.707588
974.965	79.808429
975.151	80.127194
975.336	80.620117
975.521	80.288653
975.706	80.691403
975.891	80.801867
976.076	80.695085
976.261	80.808229
976.446	80.183589
976.631	79.442265
976.816	79.276086
977.001	79.646682
977.186	79.967552
977.370	80.225763
977.555	81.069037
977.740	80.952676
977.925	81.445609
978.110	81.538266
978.295	80.730625
978.479	81.286862
978.664	82.262950
978.849	82.519095
979.034	82.444536
979.218	82.159447
979.403	82.031504
979.588	81.982596
979.772	82.745138
979.957	82.506997
980.141	82.203255
980.326	83.240274
980.511	83.469484
980.695	83.855263
980.880	84.083376
981.064	83.498125
981.249	83.300138
981.433	83.168216
981.618	82.571490
981.802	81.853007
981.987	81.511814
982.171	81.587390
982.355	80.463212
982.540	80.005201
982.724	80.002229
982.908	79.905488
983.093	80.093170
983.277	80.112858
983.461	80.221470
983.646	80.885473
983.830	81.105463
984.014	81.665298
984.198	82.245862
984.382	83.601866
984.567	84.319005
984.751	84.806326
984.935	84.956247
985.119	85.082546
985.303	85.304029
985.487	84.624985
985.671	83.826932
985.855	83.516588
986.039	83.080264
986.223	82.197159
986.407	81.275636
986.591	80.926849
986.775	80.378235
986.959	80.409837
987.143	80.708069
987.327	80.324775
987.511	80.397727
987.695	80.508895
987.879	80.731085
988.062	80.983499
988.246	81.783740
988.430	82.136582
988.614	82.498072
988.797	82.383610
988.981	82.278540
989.165	82.340112
989.349	82.424241
989.532	82.443978
989.716	82.389769
989.900	81.890858
990.083	81.904565
990.267	81.426810
990.450	81.608295
990.634	80.937223
990.817	81.194583
991.001	81.934368
991.184	82.234343
991.368	82.888312
991.551	83.629729
991.735	84.214156
991.918	85.098432
992.102	85.613296
992.285	86.367283
992.469	86.252681
992.652	86.419048
992.835	85.840341
993.019	85.491158
993.202	86.069005
993.385	86.419256
993.568	86.427007
993.752	86.997502
993.935	87.026608
994.118	86.975987
994.301	87.276213
994.484	87.254992
994.668	88.092326
994.851	88.454394
995.034	87.848039
995.217	87.545733
995.400	87.816063
995.583	87.930368
995.766	86.968729
995.949	86.622235
996.132	86.400264
996.315	86.046419
996.498	85.412766
996.681	84.993434
996.864	85.416427
997.047	85.769832
997.230	85.302602
997.413	84.422008
997.596	83.727192
997.778	83.948904
997.961	84.035438
998.144	84.381012
998.327	84.534039
998.510	85.486917
998.692	86.107786
998.875	85.354131
999.058	85.334644
999.241	85.003931
999.423	84.227118
999.606	84.055044
999.789	83.454973
999.971	82.801259
1000.154	82.402854
1000.336	81.976240
1000.519	81.804392
1000.701	81.807964
1000.884	82.112998
1001.067	82.471252
1001.249	83.060340
1001.431	83.515966
1001.614	83.471248
1001.796	84.289762
1001.979	85.640072
1002.161	86.110162
1002.344	86.886007
1002.526	86.896444
1002.708	86.485617
1002.891	87.054935
1003.073	87.209438
1003.255	87.723628
1003.438	88.764017
1003.620	90.014609
1003.802	90.125438
1003.984	89.503631
1004.166	89.080527
1004.349	88.612507
1004.531	89.403544
1004.713	89.531552
1004.895	88.362486
1005.077	87.409010
1005.259	87.019210
1005.441	86.953034
1005.623	86.270991
1005.805	85.734656
1005.987	86.035585
1006.169	86.762760
1006.351	86.438513
1006.533	85.859052
1006.715	85.740808
1006.897	86.915422
1007.079	87.786523
1007.261	87.332985
1007.443	87.275252
1007.625	87.494518
1007.806	87.374440
1007.988	87.143353
1008.170	86.873195
1008.352	87.781973
1008.534	88.144975
1008.715	88.275423
1008.897	88.309957
1009.079	88.564318
1009.260	89.095295
1009.442	88.646789
1009.624	88.807643
1009.805	88.579909
1009.987	88.989531
1010.169	88.759257
1010.350	87.530717
1010.532	86.848504
1010.713	86.752009
1010.895	86.585991
1011.076	87.355520
1011.258	88.352293
1011.439	89.147782
1011.621	89.191171
1011.802	90.373813
1011.983	90.504640
1012.165	90.534455
1012.346	91.164965
1012.527	91.496205
1012.709	91.856641
1012.890	91.724423
1013.071	90.129338
1013.253	88.808333
1013.434	88.260263
1013.615	87.547868
1013.796	86.968763
1013.978	86.752034
1014.159	86.769056
1014.340	87.198104
1014.521	87.776463
1014.702	88.048486
1014.883	87.849507
1015.064	88.319972
1015.245	88.987654
1015.427	88.238444
1015.608	88.161265
1015.789	88.274741
1015.970	88.532183
1016.151	87.829913
1016.332	86.880330
1016.512	86.385732
1016.693	85.514879
1016.874	84.872584
1017.055	84.494482
1017.236	83.894374
1017.417	84.361764
1017.598	84.091914
1017.779	83.985770
1017.959	84.113966
1018.140	85.261959
1018.321	85.759013
1018.502	86.009139
1018.682	86.724347
1018.863	87.633403
1019.044	88.098235
1019.224	87.956293
1019.405	88.384307
1019.586	89.992465
1019.766	90.904931
1019.947	90.437408
1020.127	89.326083
1020.308	88.364941
1020.488	88.560664
1020.669	88.229269
1020.849	88.102860
1021.030	87.462032
1021.210	88.120906
1021.391	88.121741
1021.571	87.212226
1021.752	86.552961
1021.932	86.101762
1022.112	86.212062
1022.293	86.839886
1022.473	86.775515
1022.653	87.758865
1022.834	89.056755
1023.014	90.334932
1023.194	90.498093
1023.374	91.035661
1023.555	91.224878
1023.735	91.698649
1023.915	92.145123
1024.095	92.374613
1024.275	92.970094
1024.455	93.085901
1024.635	92.355840
1024.816	91.543807
1024.996	90.843096
1025.176	90.688508
1025.356	90.154695
1025.536	90.300476
1025.716	90.073244
1025.896	90.067975
1026.076	89.705139
1026.256	89.252963
1026.436	88.644822
1026.615	87.887415
1026.795	87.511070
1026.975	88.054109
1027.155	88.674542
1027.335	88.983639
1027.515	89.412605
1027.695	89.547205
1027.874	89.902694
1028.054	90.453362
1028.234	90.285897
1028.413	91.030660
1028.593	91.483613
1028.773	91.037896
1028.953	90.772770
1029.132	90.812637
1029.312	91.393511
1029.491	90.958260
1029.671	90.228801
1029.851	90.793718
1030.030	91.170012
1030.210	92.547576
1030.389	92.027859
1030.569	91.698262
1030.748	91.956047
1030.928	91.626038
1031.107	91.034662
1031.286	90.327677
1031.466	89.451991
1031.645	89.702518
1031.825	87.929749
1032.004	87.988284
1032.183	87.290840
1032.363	88.191425
1032.542	89.168042
1032.721	89.760304
1032.900	89.676519
1033.080	89.841470
1033.259	89.863211
1033.438	90.734580
1033.617	91.578322
1033.796	93.267666
1033.975	92.553875
1034.155	93.251416
1034.334	93.576935
1034.513	91.818072
1034.692	91.346187
1034.871	92.567660
1035.050	92.694208
1035.229	93.192402
1035.408	93.689542
1035.587	92.539335
1035.766	92.220346
1035.945	93.004010
1036.124	92.331187
1036.303	91.287091
1036.481	93.528408
1036.660	93.626554
1036.839	91.621284
1037.018	90.239468
1037.197	89.684170
1037.376	88.798413
1037.554	89.381920
1037.733	88.844800
1037.912	88.078909
1038.091	87.140290
1038.269	86.748786
1038.448	85.331496
1038.627	85.246388
1038.805	85.849302
1038.984	86.974204
1039.162	86.934803
1039.341	87.197774
1039.520	87.103246
1039.698	86.584301
1039.877	86.302238
1040.055	87.243171
1040.234	87.693638
1040.412	88.340575
1040.591	88.286174
1040.769	89.687560
1040.947	90.844422
1041.126	91.256358
1041.304	92.496562
1041.483	93.281989
1041.661	94.247344
1041.839	94.781590
1042.017	94.229791
1042.196	94.493201
1042.374	94.626167
1042.552	94.553000
1042.730	93.316208
1042.909	91.486207
1043.087	91.242806
1043.265	90.583266
1043.443	90.335337
1043.621	90.770753
1043.799	90.788142
1043.978	91.809966
1044.156	92.148890
1044.334	91.725819
1044.512	91.787100
1044.690	91.811378
1044.868	92.209592
1045.046	91.344599
1045.224	90.240383
1045.402	89.099426
1045.580	88.368566
1045.758	88.059140
1045.935	87.476663
1046.113	86.455856
1046.291	86.553099
1046.469	86.607782
1046.647	87.308413
1046.825	86.800575
1047.002	86.557985
1047.180	87.072115
1047.358	88.004987
1047.536	87.879228
1047.713	88.609616
1047.891	87.857491
1048.069	87.407903
1048.246	87.568085
1048.424	87.834400
1048.602	87.366320
1048.779	87.106522
1048.957	87.345061
1049.134	88.125578
1049.312	87.618727
1049.489	87.403431
1049.667	86.480829
1049.844	86.767607
1050.022	86.956513
1050.199	86.736975
1050.377	85.675948
1050.554	84.750186
1050.731	85.231827
1050.909	85.521111
1051.086	84.945746
1051.263	85.091094
1051.441	85.621483
1051.618	85.683575
1051.795	85.191871
1051.973	85.979009
1052.150	86.257288
1052.327	86.573288
1052.504	87.267999
1052.681	86.934380
1052.859	87.149262
1053.036	86.810750
1053.213	87.048414
1053.390	87.534237
1053.567	88.450917
1053.744	89.306738
1053.921	88.613931
1054.098	87.969890
1054.275	88.524510
1054.452	89.003339
1054.629	89.785352
1054.806	89.716485
1054.983	90.671763
1055.160	91.910491
1055.337	91.694008
1055.514	92.133008
1055.691	91.694989
1055.868	92.225254
1056.044	92.929880
1056.221	92.470726
1056.398	92.432626
1056.575	91.993248
1056.751	92.144159
1056.928	91.709072
1057.105	89.893849
1057.282	89.299596
1057.458	87.783064
1057.635	87.992457
1057.812	87.748664
1057.988	87.610814
1058.165	87.935947
1058.341	87.471564
1058.518	87.539002
1058.694	87.733967
1058.871	87.569733
1059.047	88.314942
1059.224	88.865076
1059.401	89.238762
1059.577	88.949466
1059.753	88.909179
1059.930	88.486486
1060.106	88.095849
1060.282	87.840783
1060.459	87.856503
1060.635	87.304092
1060.812	87.303245
1060.988	87.305535
1061.164	86.836267
1061.340	86.649692
1061.517	86.161708
1061.693	86.020026
1061.869	85.907672
1062.045	85.681594
1062.221	85.332143
1062.398	85.185349
1062.574	85.971341
1062.750	86.173850
1062.926	85.579297
1063.102	85.555211
1063.278	85.562218
1063.454	86.529605
1063.630	86.513492
1063.806	86.714210
1063.982	87.007880
1064.158	87.421380
1064.334	88.009969
1064.510	87.638260
1064.686	87.513136
1064.862	87.473863
1065.038	86.301478
1065.214	85.744268
1065.389	85.153877
1065.565	85.266117
1065.741	85.455352
1065.917	84.974331
1066.093	84.287810
1066.268	83.467395
1066.444	82.672443
1066.620	82.160998
1066.795	82.179110
1066.971	83.119502
1067.147	83.462848
1067.322	83.448691
1067.498	83.398346
1067.673	83.234453
1067.849	83.455773
1068.025	83.548549
1068.200	84.223935
1068.376	84.615478
1068.551	84.829481
1068.727	84.899280
1068.902	84.862557
1069.078	85.193152
1069.253	85.344298
1069.428	85.785145
1069.604	85.399008
1069.779	84.359556
1069.954	84.948876
1070.130	83.937115
1070.305	83.707637
1070.480	83.800386
1070.656	83.014694
1070.831	82.008459
1071.006	81.665256
1071.181	81.305830
1071.357	80.730724
1071.532	80.980305
1071.707	82.254026
1071.882	82.231487
1072.057	82.157194
1072.232	81.293847
1072.407	80.768302
1072.582	81.627156
1072.757	82.225769
1072.932	81.841159
1073.107	82.361266
1073.282	82.344994
1073.457	82.107358
1073.632	81.299840
1073.807	81.229056
1073.982	82.032098
1074.157	82.942789
1074.332	82.195100
1074.507	81.542117
1074.682	81.878153
1074.856	82.277337
1075.031	81.208047
1075.206	80.644480
1075.381	79.714438
1075.556	79.966959
1075.730	79.496671
1075.905	78.850045
1076.080	78.819548
1076.254	80.150683
1076.429	80.430710
1076.604	80.009959
1076.778	79.910323
1076.953	80.642415
1077.127	81.104187
1077.302	82.613944
1077.477	83.297501
1077.651	84.322499
1077.826	84.439690
1078.000	83.743161
1078.175	82.845221
1078.349	82.410559
1078.523	82.306016
1078.698	82.077670
1078.872	81.928344
1079.047	81.338419
1079.221	80.912258
1079.395	80.309987
1079.570	79.564704
1079.744	79.294303
1079.918	79.641226
1080.092	80.043296
1080.267	80.357606
1080.441	80.666794
1080.615	80.651114
1080.789	80.119300
1080.963	80.417502
1081.137	80.131042
1081.312	80.567974
1081.486	81.031443
1081.660	81.418235
1081.834	81.664516
1082.008	81.341056
1082.182	80.638110
1082.356	80.186948
1082.530	80.439053
1082.704	81.317963
1082.878	81.809065
1083.052	81.777995
1083.226	81.587282
1083.400	81.369164
1083.573	80.490576
1083.747	79.512873
1083.921	79.936260
1084.095	80.889901
1084.269	81.146697
1084.443	80.960889
1084.616	80.182009
1084.790	80.015212
1084.964	80.364731
1085.138	80.205475
1085.311	79.953879
1085.485	79.905456
1085.659	79.981919
1085.832	79.798668
1086.006	79.599818
1086.179	79.529903
1086.353	79.318882
1086.527	79.876241
1086.700	79.605144
1086.874	78.727194
1087.047	78.132817
1087.221	77.968792
1087.394	78.095039
1087.568	78.420445
1087.741	78.012409
1087.914	77.430598
1088.088	77.082274
1088.261	77.159917
1088.435	76.680169
1088.608	76.147003
1088.781	76.205119
1088.954	76.362733
1089.128	76.011728
1089.301	76.065040
1089.474	75.474182
1089.647	74.969343
1089.821	75.074928
1089.994	75.173852
1090.167	74.835203
1090.340	74.704900
1090.513	75.003956
1090.686	75.470597
1090.859	75.858302
1091.032	76.394991
1091.206	76.718856
1091.379	76.999860
1091.552	77.772404
1091.725	77.723477
1091.898	77.332957
1092.071	77.389589
1092.244	77.250916
1092.416	76.851983
1092.589	75.560168
1092.762	75.200341
1092.935	74.981459
1093.108	74.570818
1093.281	74.431179
1093.453	74.195441
1093.626	73.939477
1093.799	74.649897
1093.972	75.221662
1094.145	75.404564
1094.317	75.281151
1094.490	76.168276
1094.663	75.715641
1094.835	75.327239
1095.008	75.169021
1095.181	75.016934
1095.353	74.362185
1095.526	74.242206
1095.698	73.431707
1095.871	72.313430
1096.043	71.828122
1096.216	72.400970
1096.388	71.357397
1096.561	71.021178
1096.733	71.125369
1096.906	71.024126
1097.078	70.632002
1097.250	70.602515
1097.423	70.689973
1097.595	70.786548
1097.768	70.885728
1097.940	71.240043
1098.112	71.184834
1098.284	71.846020
1098.457	71.870079
1098.629	70.899347
1098.801	70.199890
1098.973	70.102055
1099.146	69.931186
1099.318	69.499372
1099.490	69.420410
1099.662	69.494972
1099.834	69.251906
1100.006	69.032953
1100.178	69.142301
1100.350	69.708934
1100.522	69.763200
1100.694	70.347853
1100.866	70.487344
1101.038	69.884680
1101.210	69.529619
1101.382	68.996336
1101.554	68.839340
1101.726	68.503885
1101.898	68.044006
1102.070	67.463693
1102.241	66.791311
1102.413	66.980915
1102.585	66.759972
1102.757	67.111208
1102.929	68.321046
1103.100	68.988832
1103.272	69.412150
1103.444	69.564380
1103.616	70.176020
1103.787	70.552630
1103.959	70.559977
1104.130	70.857527
1104.302	70.910656
1104.474	70.962457
1104.645	70.601230
1104.817	69.598460
1104.988	69.105273
1105.160	68.591442
1105.331	67.803108
1105.503	67.033786
1105.674	66.714374
1105.846	67.031218
1106.017	67.176016
1106.189	67.401147
1106.360	67.536985
1106.531	66.956387
1106.703	67.134053
1106.874	67.343194
1107.045	67.704334
1107.217	67.875019
1107.388	67.686561
1107.559	67.073572
1107.730	66.557341
1107.902	66.522732
1108.073	66.105810
1108.244	65.511068
1108.415	65.693424
1108.586	65.571338
1108.757	65.036073
1108.929	64.792873
1109.100	65.119979
1109.271	65.211513
1109.442	65.458757
1109.613	65.801034
1109.784	65.335112
1109.955	64.722590
1110.126	64.303656
1110.297	64.172694
1110.468	63.895414
1110.639	64.021363
1110.809	63.620261
1110.980	63.272241
1111.151	62.855014
1111.322	62.237221
1111.493	61.561303
1111.664	61.403105
1111.834	61.808907
1112.005	62.167737
1112.176	62.222242
1112.347	62.480498
1112.517	62.264346
1112.688	62.057424
1112.859	62.166378
1113.029	62.470805
1113.200	62.549305
1113.371	62.445952
1113.541	62.055051
1113.712	62.065628
1113.882	62.173714
1114.053	62.465673
1114.223	62.209415
1114.394	61.844365
1114.564	61.678128
1114.735	61.511026
1114.905	61.171161
1115.076	61.177735
1115.246	61.461644
1115.416	61.844132
1115.587	61.656432
1115.757	61.759002
1115.927	61.793529
1116.098	62.167504
1116.268	62.738027
1116.438	62.716407
1116.609	62.128949
1116.779	62.200776
1116.949	62.455607
1117.119	62.475743
1117.289	62.317149
1117.459	62.433853
1117.630	62.441736
1117.800	61.665161
1117.970	60.900947
1118.140	60.585717
1118.310	60.550833
1118.480	60.493457
1118.650	60.705194
1118.820	60.631308
1118.990	60.075620
1119.160	59.769530
1119.330	59.214876
1119.500	58.644597
1119.670	59.086758
1119.840	59.914016
1120.010	60.188872
1120.179	60.227141
1120.349	60.558684
1120.519	59.820956
1120.689	59.195554
1120.859	59.101992
1121.028	58.914547
1121.198	59.299608
1121.368	59.337705
1121.538	59.422343
1121.707	58.726670
1121.877	57.883890
1122.047	58.049609
1122.216	58.078747
1122.386	57.791730
1122.555	57.858623
1122.725	58.246925
1122.894	58.882467
1123.064	58.497527
1123.233	57.868538
1123.403	57.167106
1123.573	56.347916
1123.742	56.137370
1123.911	55.676373
1124.081	54.924243
1124.250	55.111755
1124.419	55.162868
1124.589	55.129932
1124.758	54.496559
1124.927	54.617430
1125.097	55.170793
1125.266	55.759980
1125.435	56.163704
1125.605	56.354687
1125.774	56.291035
1125.943	57.024529
1126.112	57.142764
1126.281	56.896771
1126.450	56.294323
1126.620	55.903416
1126.789	55.664368
1126.958	55.795982
1127.127	55.341791
1127.296	55.089026
1127.465	55.374587
1127.634	55.828746
1127.803	55.356443
1127.972	54.984405
1128.141	54.846526
1128.310	54.726379
1128.479	54.878750
1128.648	54.695327
1128.817	54.224170
1128.985	53.473688
1129.154	53.611089
1129.323	53.351401
1129.492	53.202198
1129.661	53.292898
1129.829	53.602924
1129.998	53.655035
1130.167	53.504314
1130.336	53.181854
1130.504	53.401440
1130.673	53.282132
1130.842	53.522724
1131.010	53.359229
1131.179	53.501432
1131.347	53.073243
1131.516	52.746013
1131.685	52.556941
1131.853	52.182976
1132.022	52.462745
1132.190	52.556201
1132.359	51.885532
1132.527	51.511233
1132.696	51.375194
1132.864	51.508286
1133.032	50.937788
1133.201	50.672510
1133.369	50.361403
1133.537	49.857495
1133.706	49.774351
1133.874	49.363071
1134.042	49.177640
1134.211	49.178409
1134.379	49.304276
1134.547	49.120159
1134.715	48.512727
1134.884	48.124089
1135.052	47.659260
1135.220	47.675280
1135.388	47.754656
1135.556	47.628733
1135.724	47.762589
1135.892	47.837537
1136.060	47.612564
1136.228	47.138702
1136.396	46.811179
1136.564	46.916401
1136.732	47.056780
1136.900	47.179332
1137.068	46.611552
1137.236	46.242931
1137.404	46.210864
1137.572	45.885176
1137.740	45.498363
1137.908	45.342896
1138.076	45.471565
1138.243	45.565387
1138.411	45.090824
1138.579	45.018703
1138.747	45.789956
1138.914	45.968256
1139.082	45.757055
1139.250	45.724068
1139.417	45.505783
1139.585	45.561171
1139.753	45.681092
1139.920	45.177421
1140.088	45.428785
1140.256	46.059745
1140.423	46.115042
1140.591	45.312357
1140.758	45.202469
1140.926	45.438609
1141.093	45.426342
1141.261	45.702234
1141.428	45.282962
1141.596	45.260767
1141.763	45.360326
1141.930	45.410874
1142.098	45.295120
1142.265	45.315017
1142.432	44.859083
1142.600	44.828799
1142.767	44.652724
1142.934	44.391664
1143.102	43.893548
1143.269	43.554040
1143.436	42.955081
1143.603	42.732695
1143.771	42.186931
1143.938	41.784374
1144.105	41.423847
1144.272	41.532713
1144.439	41.311164
1144.606	41.261546
1144.773	41.229281
1144.940	41.026547
1145.107	41.163382
1145.274	41.582857
1145.441	41.827019
1145.608	41.508185
1145.775	41.052134
1145.942	40.826618
1146.109	40.743903
1146.276	40.559609
1146.443	40.512986
1146.610	40.509465
1146.776	40.816091
1146.943	41.098782
1147.110	40.786613
1147.277	40.536662
1147.444	40.132443
1147.610	40.193142
1147.777	40.095475
1147.944	39.572404
1148.110	39.715542
1148.277	39.619543
1148.444	39.374978
1148.610	39.371832
1148.777	39.297077
1148.944	39.346864
1149.110	39.749842
1149.277	40.772004
1149.443	41.061221
1149.610	41.315959
1149.776	41.844382
1149.943	41.755444
1150.109	41.444263
1150.276	41.274408
1150.442	41.044981
1150.608	40.606334
1150.775	40.097302
1150.941	39.351480
1151.107	38.400220
1151.274	38.002589
1151.440	37.795685
1151.606	37.505576
1151.773	37.357307
1151.939	37.221070
1152.105	37.221209
1152.271	37.188640
1152.438	36.741287
1152.604	37.259835
1152.770	37.396071
1152.936	37.640170
1153.102	37.342755
1153.268	36.883822
1153.434	36.900919
1153.600	36.363865
1153.766	35.689623
1153.932	35.262085
1154.098	34.854028
1154.264	34.945692
1154.430	34.238410
1154.596	33.854661
1154.762	33.590203
1154.928	33.767880
1155.094	34.011643
1155.260	33.798225
1155.426	34.073035
1155.591	34.211394
1155.757	33.701197
1155.923	33.270411
1156.089	33.292449
1156.255	33.128188
1156.420	32.846339
1156.586	32.207647
1156.752	31.402642
1156.917	31.448572
1157.083	31.674003
1157.249	31.534522
1157.414	31.499692
1157.580	31.998557
1157.745	32.324297
1157.911	31.855940
1158.076	32.234260
1158.242	32.703672
1158.407	33.011959
1158.573	33.158553
1158.738	32.255083
1158.904	31.527050
1159.069	31.589422
1159.235	31.517900
1159.400	31.014399
1159.565	31.051652
1159.731	31.476074
1159.896	30.935465
1160.061	30.068533
1160.227	29.868092
1160.392	30.631492
1160.557	31.014178
1160.722	31.100390
1160.888	30.941927
1161.053	31.140674
1161.218	31.323793
1161.383	31.035178
1161.548	30.629588
1161.713	30.361032
1161.878	30.764461
1162.043	31.114605
1162.208	30.241638
1162.374	29.654844
1162.539	29.443895
1162.704	29.564794
1162.869	29.148301
1163.033	29.337680
1163.198	29.109631
1163.363	29.360988
1163.528	29.815783
1163.693	29.545218
1163.858	29.502718
1164.023	29.447410
1164.188	29.442967
1164.353	29.539047
1164.517	29.428801
1164.682	29.603592
1164.847	29.037807
1165.011	29.006577
1165.176	28.684430
1165.341	28.004017
1165.506	27.991610
1165.670	27.089111
1165.835	27.217850
1166.000	27.512921
1166.164	27.333799
1166.329	26.465411
1166.493	26.326119
1166.658	26.390149
1166.822	26.476715
1166.987	26.440337
1167.151	26.473625
1167.316	26.761476
1167.480	26.844701
1167.645	26.645860
1167.809	26.398886
1167.973	26.376238
1168.138	26.549765
1168.302	26.106113
1168.466	25.859529
1168.631	25.845322
1168.795	25.564289
1168.959	25.668665
1169.124	25.160194
1169.288	25.362378
1169.452	24.995322
1169.616	24.647934
1169.780	23.925262
1169.944	23.488307
1170.109	23.298731
1170.273	23.393155
1170.437	23.189297
1170.601	23.255512
1170.765	23.723516
1170.929	23.434871
1171.093	23.216861
1171.257	23.134194
1171.421	22.785921
1171.585	23.331758
1171.749	23.844858
1171.913	24.433779
1172.077	23.813380
1172.240	23.099381
1172.404	22.671972
1172.568	22.019038
1172.732	22.040442
1172.896	21.806192
1173.060	21.802596
1173.223	22.424652
1173.387	22.406600
1173.551	21.843262
1173.715	21.463190
1173.878	21.746398
1174.042	22.083983
1174.206	22.692590
1174.369	22.649239
1174.533	22.839841
1174.696	22.881875
1174.860	23.113591
1175.023	22.921648
1175.187	22.611521
1175.351	22.773623
1175.514	22.587281
1175.677	22.716037
1175.841	22.795998
1176.004	22.538369
1176.168	22.587272
1176.331	22.699950
1176.495	22.608093
1176.658	22.201962
1176.821	21.972960
1176.985	21.746365
1177.148	22.127814
1177.311	22.545240
1177.474	22.552870
1177.638	22.566746
1177.801	22.334270
1177.964	22.082890
1178.127	21.710302
1178.291	21.603456
1178.454	21.896304
1178.617	21.740037
1178.780	21.569128
1178.943	21.313044
1179.106	20.720550
1179.269	20.407265
1179.432	20.188287
1179.595	20.021180
1179.758	19.902546
1179.921	19.737167
1180.084	19.978469
1180.247	19.701893
1180.410	19.724536
1180.573	19.965587
1180.736	19.614621
1180.899	19.698813
1181.061	20.112444
1181.224	20.258635
1181.387	19.955951
1181.550	19.705120
1181.713	19.798159
1181.875	19.363918
1182.038	18.965914
1182.201	18.888660
1182.363	19.037192
1182.526	18.895401
1182.689	18.358597
1182.851	17.716425
1183.014	17.402371
1183.177	17.633782
1183.339	17.670598
1183.502	17.530840
1183.664	17.624210
1183.827	17.819143
1183.989	17.611697
1184.152	17.110909
1184.314	17.255395
1184.477	17.827272
1184.639	18.490821
1184.801	18.370872
1184.964	18.335513
1185.126	18.529313
1185.288	18.489716
1185.451	18.307754
1185.613	18.089599
1185.775	18.322402
1185.938	18.420428
1186.100	18.064267
1186.262	18.042881
1186.424	17.868500
1186.586	17.771097
1186.749	17.631734
1186.911	17.446903
1187.073	17.124959
1187.235	17.304688
1187.397	17.109553
1187.559	16.736017
1187.721	16.507326
1187.883	16.453597
1188.045	16.503475
1188.207	16.060188
1188.369	16.201656
1188.531	16.183041
1188.693	16.477247
1188.855	16.349228
1189.017	15.956092
1189.179	16.010473
1189.341	16.419275
1189.502	16.615384
1189.664	16.320594
1189.826	15.755293
1189.988	15.453665
1190.150	15.304537
1190.311	15.302505
1190.473	14.930886
1190.635	15.299682
1190.796	15.176228
1190.958	15.327363
1191.120	14.821594
1191.281	14.484308
1191.443	14.789473
1191.604	14.711527
1191.766	14.576476
1191.928	14.267980
1192.089	14.276908
1192.251	14.278312
1192.412	14.071170
1192.574	14.698816
1192.735	15.012540
1192.896	15.471918
1193.058	15.596500
1193.219	16.188119
1193.381	16.976454
1193.542	17.222555
1193.703	17.906642
1193.865	17.955649
1194.026	18.228404
1194.187	18.358946
1194.349	18.274114
1194.510	17.939639
1194.671	17.274416
1194.832	17.330034
1194.993	16.548927
1195.155	16.131263
1195.316	16.175401
1195.477	15.528511
1195.638	15.343040
1195.799	14.770737
1195.960	14.381766
1196.121	13.720628
1196.282	13.827413
1196.443	14.268703
1196.604	14.507009
1196.765	14.647541
1196.926	14.344869
1197.087	14.508206
1197.248	14.684160
1197.409	14.935882
1197.570	15.276292
1197.730	15.717273
1197.891	16.189270
1198.052	16.327237
1198.213	16.347967
1198.374	16.175723
1198.534	16.448964
1198.695	16.762418
1198.856	16.987515
1199.016	17.278931
1199.177	17.017479
1199.338	16.822576
1199.498	16.867734
1199.659	16.965431
1199.820	17.005222
1199.980	17.142490
1200.141	17.495970
1200.301	17.917636
1200.462	17.964253
1200.622	17.710829
1200.783	17.526625
1200.943	17.562640
1201.104	17.948660
1201.264	17.786002
1201.424	17.459610
1201.585	17.150826
1201.745	16.782179
1201.906	16.089216
1202.066	15.869455
1202.226	15.620490
1202.386	15.300750
1202.547	15.270221
1202.707	15.150942
1202.867	14.811474
1203.027	14.846039
1203.188	14.746213
1203.348	14.584873
1203.508	14.767700
1203.668	15.120525
1203.828	15.267143
1203.988	15.338819
1204.148	15.704739
1204.308	16.076817
1204.468	16.472225
1204.628	16.696519
1204.788	16.367815
1204.948	16.502329
1205.108	17.258429
1205.268	17.553843
1205.428	17.104012
1205.588	16.296051
1205.748	16.211508
1205.908	16.278425
1206.068	15.823549
1206.228	15.745917
1206.387	15.570093
1206.547	15.789400
1206.707	15.981914
1206.867	15.562341
1207.026	15.249928
1207.186	15.902912
1207.346	15.853381
1207.505	16.015136
1207.665	15.704124
1207.825	15.751506
1207.984	15.881229
1208.144	16.169208
1208.303	16.363815
1208.463	16.347911
1208.622	16.383894
1208.782	16.816547
1208.941	16.591183
1209.101	16.905589
1209.260	16.583977
1209.420	16.796626
1209.579	16.791486
1209.739	16.478004
1209.898	16.098260
1210.057	15.969157
1210.217	16.305605
1210.376	16.122754
1210.535	16.204814
1210.694	16.729485
1210.854	17.173030
1211.013	17.665063
1211.172	17.638921
1211.331	17.722830
1211.490	17.992684
1211.650	18.289042
1211.809	18.374835
1211.968	17.969930
1212.127	17.882491
1212.286	17.518912
1212.445	17.421391
1212.604	17.339744
1212.763	17.390560
1212.922	17.751460
1213.081	17.949854
1213.240	17.956160
1213.399	17.926023
1213.558	18.671252
1213.717	18.882094
1213.876	19.467826
1214.035	20.131415
1214.194	19.833191
1214.352	19.580285
1214.511	19.268215
1214.670	19.440848
1214.829	19.795658
1214.988	19.757561
1215.146	19.886366
1215.305	19.481637
1215.464	19.601056
1215.622	19.076425
1215.781	18.133145
1215.940	18.089448
1216.098	18.289387
1216.257	18.409508
1216.415	18.408060
1216.574	18.322654
1216.732	18.781490
1216.891	18.579279
1217.049	18.414139
1217.208	18.521162
1217.366	19.336428
1217.525	20.322233
1217.683	20.843238
1217.842	21.121347
1218.000	21.318137
1218.158	21.079099
1218.317	20.736382
1218.475	20.354723
1218.633	20.667819
1218.792	21.177893
1218.950	21.070678
1219.108	20.538606
1219.266	19.912269
1219.425	19.509553
1219.583	19.248078
1219.741	19.293927
1219.899	19.330795
1220.057	19.585579
1220.215	20.071910
1220.373	20.579970
1220.531	20.403631
1220.689	20.524729
1220.847	20.877726
1221.005	21.178762
1221.163	21.286319
1221.322	21.357072
1221.479	21.722793
1221.637	21.888606
1221.795	22.195816
1221.953	22.085777
1222.111	21.520105
1222.269	21.381517
1222.427	21.482129
1222.584	21.480222
1222.742	21.348353
1222.900	21.752633
1223.058	22.085921
1223.216	21.841426
1223.373	21.815238
1223.531	21.706211
1223.689	21.617008
1223.846	22.063014
1224.004	22.321187
1224.162	22.495342
1224.319	22.377984
1224.477	22.564220
1224.634	22.671737
1224.792	22.736167
1224.949	22.813276
1225.107	22.581038
1225.264	22.375527
1225.422	22.233656
1225.579	22.256929
1225.737	22.328341
1225.894	22.398033
1226.052	22.897452
1226.209	22.767519
1226.366	22.287137
1226.523	22.352356
1226.681	22.813275
1226.838	22.846235
1226.995	22.958198
1227.153	23.359180
1227.310	22.794020
1227.467	22.563755
1227.624	22.439635
1227.781	21.956843
1227.938	22.268921
1228.096	22.597896
1228.253	22.281346
1228.410	21.673943
1228.567	22.130508
1228.724	21.782220
1228.881	21.248018
1229.038	21.477368
1229.195	21.308738
1229.352	21.383774
1229.509	21.614320
1229.666	21.591761
1229.823	21.792677
1229.980	21.830768
1230.136	21.885192
1230.293	22.349380
1230.450	23.588990
1230.607	24.309740
1230.764	24.655441
1230.921	25.056782
1231.077	25.255989
1231.234	25.223933
1231.391	25.158686
1231.547	24.695229
1231.704	24.839729
1231.861	25.338051
1232.018	25.152148
1232.174	24.969098
1232.331	25.132746
1232.487	25.308256
1232.644	25.638545
1232.800	25.714929
1232.957	26.010626
1233.113	26.091807
1233.270	27.044484
1233.426	27.621863
1233.583	27.625887
1233.739	27.858337
1233.896	27.564704
1234.052	27.276743
1234.208	27.341656
1234.365	27.154520
1234.521	27.316018
1234.677	27.438760
1234.834	27.654280
1234.990	27.223636
1235.146	26.860797
1235.302	26.620921
1235.459	26.831942
1235.615	27.002156
1235.771	26.971340
1235.927	27.057462
1236.083	27.583626
1236.239	27.652444
1236.396	27.633529
1236.552	27.642432
1236.708	27.356738
1236.864	27.504884
1237.020	28.067184
1237.176	27.365644
1237.332	27.220519
1237.488	27.832335
1237.644	28.086706
1237.799	28.162431
1237.955	28.296620
1238.111	28.064462
1238.267	27.978060
1238.423	28.562516
1238.579	28.618171
1238.734	28.402056
1238.890	28.781719
1239.046	28.850287
1239.202	28.398794
1239.357	28.235438
1239.513	27.995096
1239.669	28.099877
1239.824	28.697401
1239.980	28.809828
1240.136	28.431051
1240.291	29.049742
1240.447	29.457754
1240.603	30.094786
1240.758	30.722543
1240.914	30.846252
1241.069	31.306546
1241.225	31.604407
1241.380	31.725863
1241.535	32.011687
1241.691	32.469532
1241.846	32.419257
1242.002	31.826018
1242.157	32.001540
1242.313	31.840758
1242.468	31.477961
1242.623	31.576230
1242.778	31.423565
1242.934	31.123586
1243.089	31.182855
1243.244	30.429707
1243.399	30.155992
1243.554	31.164788
1243.710	31.734365
1243.865	31.143038
1244.020	30.946505
1244.175	30.700818
1244.330	31.064225
1244.485	31.792564
1244.640	32.321412
1244.795	32.366693
1244.950	33.084214
1245.105	33.567963
1245.260	33.521317
1245.415	33.260121
1245.570	33.306571
1245.725	32.979594
1245.880	34.002926
1246.035	34.382784
1246.190	33.474580
1246.345	33.363955
1246.499	33.114863
1246.654	32.656751
1246.809	32.600187
1246.964	31.792515
1247.118	31.012010
1247.273	30.834414
1247.428	31.641662
1247.583	31.350655
1247.737	31.275095
1247.892	31.503756
1248.047	31.146774
1248.201	31.154483
1248.356	31.679262
1248.510	31.790984
1248.665	32.609364
1248.819	33.598948
1248.974	34.881651
1249.128	35.004544
1249.283	35.239626
1249.437	35.377724
1249.592	35.442767
1249.746	35.412988
1249.900	35.400744
1250.055	36.057944
1250.209	36.054853
1250.363	36.024538
1250.518	36.224983
1250.672	35.789820
1250.826	35.343559
1250.981	35.362380
1251.135	35.337673
1251.289	35.412588
1251.443	35.912002
1251.597	36.138874
1251.751	35.037102
1251.906	35.169368
1252.060	35.412815
1252.214	35.305129
1252.368	35.187491
1252.522	35.605710
1252.676	35.459289
1252.830	35.130712
1252.984	35.442484
1253.138	35.121075
1253.292	35.854264
1253.446	37.235033
1253.600	37.044521
1253.754	36.692391
1253.907	36.546300
1254.061	36.298727
1254.215	35.901983
1254.369	36.066167
1254.523	36.518064
1254.677	36.772162
1254.830	37.005918
1254.984	36.782826
1255.138	36.713671
1255.292	37.274927
1255.445	38.063725
1255.599	38.881538
1255.752	39.533504
1255.906	40.406716
1256.060	40.603878
1256.213	40.126560
1256.367	40.146135
1256.520	40.792093
1256.674	41.149770
1256.827	40.379777
1256.981	40.068582
1257.134	39.468367
1257.288	39.421208
1257.441	39.734229
1257.594	38.911840
1257.748	38.979487
1257.901	40.487670
1258.055	40.676631
1258.208	40.386195
1258.361	39.569622
1258.515	39.415981
1258.668	39.323375
1258.821	39.966273
1258.974	40.459067
1259.127	40.932537
1259.281	41.433343
1259.434	41.582901
1259.587	40.731365
1259.740	41.359880
1259.893	41.641938
1260.046	42.386533
1260.199	42.876443
1260.352	44.119184
1260.505	44.684048
1260.658	44.374849
1260.811	44.451048
1260.964	44.989125
1261.117	44.438950
1261.270	44.839238
1261.423	44.209771
1261.576	44.235833
1261.729	44.586963
1261.882	45.183956
1262.035	44.415323
1262.188	43.263347
1262.340	43.468444
1262.493	43.466873
1262.646	44.334647
1262.798	45.059472
1262.951	45.209187
1263.104	44.063760
1263.257	43.346147
1263.409	42.680462
1263.562	42.402615
1263.714	42.350354
1263.867	43.267421
1264.020	43.155258
1264.172	42.777339
1264.325	41.616448
1264.477	41.878522
1264.630	41.266860
1264.782	43.060581
1264.935	45.243471
1265.087	45.372144
1265.240	44.615661
1265.392	45.084436
1265.544	45.494211
1265.697	45.853495
1265.849	45.289527
1266.001	44.614725
1266.154	45.093254
1266.306	45.813402
1266.458	45.204643
1266.610	43.487811
1266.762	43.836184
1266.915	44.276698
1267.067	43.240967
1267.219	41.645656
1267.371	41.705426
1267.523	42.115889
1267.675	42.755528
1267.828	41.902005
1267.979	41.384272
1268.132	40.594270
1268.284	41.174635
1268.436	40.889250
1268.588	41.201220
1268.740	42.313856
1268.891	42.699344
1269.043	42.350059
1269.195	42.551416
1269.347	43.334139
1269.499	43.878665
1269.651	44.020613
1269.803	44.116936
1269.955	43.839390
1270.106	44.752399
1270.258	44.198948
1270.410	43.303338
1270.562	44.131253
1270.713	44.264425
1270.865	44.663333
1271.017	44.255694
1271.168	44.450217
1271.320	44.393044
1271.471	45.383989
1271.623	45.691142
1271.775	45.687261
1271.926	46.900789
1272.078	47.976329
1272.229	48.100476
1272.381	48.415913
1272.532	49.063466
1272.684	49.380354
1272.835	49.199933
1272.986	49.256063
1273.138	48.796155
1273.289	48.614689
1273.440	49.006895
1273.592	48.310741
1273.743	48.330731
1273.894	48.588054
1274.046	48.821444
1274.197	48.026426
1274.348	47.614167
1274.500	47.219607
1274.651	47.528993
1274.802	48.453255
>>>>>>>>>> END of Data <<<<<<<<<<
