Date	2025年07月03日木曜日 10時01分59秒
Spectrometers	SR401765
ダーク	使用
リファレンス	使用
積分時間[msec]	300
平均回数	1
ｽﾑｰｼﾞﾝｸﾞ	5
Electrical Dark	USE
ピクセル数	3648
計測モード	反射率
保存開始波長[nm]	598.495
保存終了波長[nm]	1274.802
保存ﾋﾟｯﾁ波長[nm]	全波長

>>>>>>>>>> Data Start <<<<<<<<<<<<
598.495	0.000000
598.713	0.000000
598.931	0.000000
599.148	0.000000
599.366	45.219423
599.584	111.344808
599.802	129.679461
600.020	0.000000
600.238	0.000000
600.455	0.000000
600.673	0.000000
600.891	40.132535
601.109	38.236117
601.326	38.851008
601.544	38.696257
601.762	39.180711
601.979	39.401903
602.197	40.086414
602.415	40.498605
602.632	40.775872
602.850	40.794885
603.067	40.539751
603.285	40.606133
603.502	40.927545
603.720	41.010366
603.938	41.201633
604.155	41.129486
604.372	41.085938
604.590	41.057145
604.807	41.191882
605.025	41.440031
605.242	41.768665
605.460	42.277192
605.677	42.425081
605.894	42.520286
606.112	42.942301
606.329	43.201018
606.546	43.345597
606.764	43.445258
606.981	43.452484
607.198	43.303496
607.415	43.145917
607.633	43.176539
607.850	43.363014
608.067	43.812240
608.284	44.170772
608.501	44.287116
608.718	44.561824
608.935	45.049910
609.153	45.430374
609.370	45.762763
609.587	46.100011
609.804	46.234111
610.021	46.277252
610.238	46.257202
610.455	46.173919
610.672	46.155841
610.889	46.327869
611.106	46.443457
611.323	46.375822
611.540	46.387784
611.756	46.570498
611.973	46.686123
612.190	46.907752
612.407	47.096018
612.624	47.359842
612.841	47.743148
613.057	48.075562
613.274	48.254290
613.491	48.489823
613.708	48.678724
613.925	48.764331
614.141	48.977855
614.358	49.410926
614.575	49.787589
614.791	50.178944
615.008	50.390886
615.225	50.548240
615.441	50.868851
615.658	51.161770
615.874	51.303177
616.091	51.565876
616.307	51.839955
616.524	51.813587
616.740	51.628379
616.957	51.586127
617.173	51.736832
617.390	51.932290
617.606	52.018139
617.823	52.029237
618.039	52.098472
618.256	52.300189
618.472	52.364905
618.688	52.656344
618.905	53.210247
619.121	53.840987
619.337	54.249988
619.554	54.481838
619.770	54.671363
619.986	55.041329
620.202	55.121593
620.419	55.095318
620.635	55.220862
620.851	55.538095
621.067	55.646193
621.283	55.541888
621.499	55.586045
621.716	55.862776
621.932	56.075539
622.148	56.197937
622.364	56.301846
622.580	56.642662
622.796	57.159281
623.012	57.434149
623.228	57.529189
623.444	57.765853
623.660	58.043781
623.876	58.036767
624.092	57.934553
624.308	57.891850
624.524	58.185191
624.740	58.376812
624.955	58.211355
625.171	58.107289
625.387	58.259232
625.603	58.631549
625.819	58.932360
626.034	59.084755
626.250	59.172527
626.466	59.487233
626.682	59.941494
626.897	60.129041
627.113	60.444968
627.329	61.221874
627.544	61.861207
627.760	62.151113
627.976	62.217268
628.191	62.144107
628.407	62.339830
628.623	62.871454
628.838	63.203152
629.054	63.344676
629.269	63.449115
629.485	63.494045
629.700	63.411764
629.916	63.291187
630.131	63.299366
630.347	63.398424
630.562	63.531483
630.777	63.660931
630.993	63.463529
631.208	63.324570
631.424	63.196162
631.639	62.946460
631.854	62.649808
632.070	62.565800
632.285	62.588689
632.500	62.770120
632.715	63.099206
632.931	63.429458
633.146	63.332088
633.361	63.340052
633.576	63.504464
633.791	63.645492
634.007	64.073218
634.222	64.763943
634.437	65.335349
634.652	65.774909
634.867	66.006314
635.082	66.098945
635.297	66.022245
635.512	66.127766
635.727	66.355963
635.942	66.535581
636.157	66.770988
636.372	66.931739
636.587	67.053857
636.802	67.124196
637.017	67.131169
637.232	67.130957
637.447	67.253435
637.662	67.792083
637.876	68.297470
638.091	68.637261
638.306	68.947174
638.521	69.338201
638.736	69.743423
638.951	69.801947
639.165	69.698022
639.380	69.600824
639.595	69.669467
639.809	69.851345
640.024	69.961038
640.239	70.072950
640.453	70.150974
640.668	70.235604
640.883	70.206975
641.097	70.001076
641.312	70.025952
641.526	70.182250
641.741	70.333882
641.955	70.242243
642.170	70.072199
642.384	69.821798
642.599	69.704760
642.813	69.656500
643.028	69.551785
643.242	69.560529
643.457	69.780861
643.671	70.070545
643.885	70.268672
644.100	70.501757
644.314	70.951389
644.528	71.409338
644.743	71.809297
644.957	72.311004
645.171	72.958011
645.386	73.616635
645.600	73.898453
645.814	73.903513
646.028	73.850262
646.242	73.902606
646.457	74.053703
646.671	74.027381
646.885	73.894781
647.099	73.804470
647.313	73.711282
647.527	73.729375
647.741	73.561199
647.955	73.523404
648.169	73.427238
648.383	73.020133
648.597	72.741098
648.811	72.428643
649.025	72.235197
649.239	72.229795
649.453	72.232982
649.667	71.951498
649.881	71.637579
650.095	71.489140
650.309	71.335116
650.523	71.321752
650.737	71.644080
650.950	72.071189
651.164	72.636878
651.378	73.085740
651.592	73.295342
651.805	73.454633
652.019	73.834752
652.233	73.867768
652.447	73.734459
652.660	73.875683
652.874	74.021514
653.088	74.060007
653.301	73.754371
653.515	73.570686
653.728	73.620387
653.942	73.704353
654.156	73.708195
654.369	73.713576
654.583	73.907912
654.796	74.448421
655.010	74.944843
655.223	75.443943
655.437	75.713014
655.650	75.900311
655.863	75.785980
656.077	75.649536
656.290	75.696213
656.504	75.819269
656.717	75.877436
656.930	76.029015
657.144	76.026371
657.357	75.905399
657.570	75.759240
657.783	75.676142
657.997	75.955704
658.210	76.274120
658.423	76.447993
658.636	76.519172
658.849	76.451031
659.063	76.387748
659.276	76.329781
659.489	76.252652
659.702	76.244137
659.915	76.189994
660.128	76.118051
660.341	75.865644
660.554	75.771473
660.767	75.642994
660.980	75.312109
661.193	75.272337
661.406	75.350578
661.619	75.319310
661.832	75.127017
662.045	74.657636
662.258	74.404825
662.471	74.522414
662.684	74.641602
662.897	74.637364
663.110	74.521028
663.322	74.426398
663.535	74.500459
663.748	74.734487
663.961	74.924183
664.174	75.100616
664.386	75.309961
664.599	75.561747
664.812	75.771686
665.024	75.995768
665.237	76.196638
665.450	76.742761
665.662	77.554678
665.875	78.006038
666.088	78.216745
666.300	78.458147
666.513	78.844204
666.725	79.359589
666.938	79.820212
667.150	79.924704
667.363	79.869362
667.575	79.844290
667.788	79.636184
668.000	79.149533
668.213	78.806380
668.425	78.731734
668.638	78.688630
668.850	78.478691
669.062	78.391398
669.275	78.394219
669.487	78.289883
669.699	78.266991
669.912	78.426239
670.124	78.488796
670.336	78.532059
670.548	78.572463
670.761	78.517279
670.973	78.487369
671.185	78.471536
671.397	78.336613
671.609	77.958744
671.822	78.099796
672.034	78.373964
672.246	78.563194
672.458	78.871729
672.670	79.045396
672.882	79.070025
673.094	78.983481
673.306	78.939414
673.518	79.256757
673.730	79.736189
673.942	80.297577
674.154	80.412871
674.366	80.242939
674.578	79.848495
674.790	79.521611
675.002	79.543888
675.214	79.545864
675.425	79.551570
675.637	79.626374
675.849	79.548748
676.061	79.502614
676.273	79.390171
676.484	79.352615
676.696	79.476650
676.908	79.747851
677.120	79.813535
677.331	79.722631
677.543	79.818610
677.755	80.237863
677.966	80.493391
678.178	80.299187
678.389	80.042268
678.601	79.998702
678.813	79.964439
679.024	79.855512
679.236	79.626927
679.447	79.512807
679.659	79.564435
679.870	79.666692
680.082	79.347195
680.293	78.986709
680.505	79.172968
680.716	79.301536
680.927	79.272379
681.139	79.293443
681.350	79.349556
681.562	79.510574
681.773	79.701143
681.984	79.616297
682.196	79.324007
682.407	79.058739
682.618	78.874328
682.829	78.621962
683.041	78.335271
683.252	78.149118
683.463	78.121285
683.674	78.236128
683.885	78.275984
684.097	78.167195
684.308	78.142801
684.519	78.224398
684.730	78.430319
684.941	78.742336
685.152	78.983698
685.363	79.129164
685.574	79.161363
685.785	79.036036
685.996	78.907996
686.207	78.990877
686.418	79.128176
686.629	79.359378
686.840	79.684907
687.051	79.874921
687.262	79.737552
687.473	79.401390
687.684	79.248787
687.894	79.080923
688.105	78.975883
688.316	78.793334
688.527	78.497432
688.738	78.316618
688.948	78.029768
689.159	77.511267
689.370	76.992565
689.580	76.616799
689.791	76.330892
690.002	76.024489
690.212	75.857970
690.423	75.895708
690.634	76.023074
690.844	76.171684
691.055	76.377917
691.266	76.803793
691.476	77.568185
691.687	78.296661
691.897	78.677012
692.108	79.013015
692.318	79.226954
692.529	79.317761
692.739	79.478376
692.949	79.660947
693.160	79.792040
693.370	79.770886
693.581	79.688633
693.791	79.478186
694.001	79.278980
694.212	79.464847
694.422	79.887089
694.632	80.297893
694.843	80.353515
695.053	80.118058
695.263	80.075837
695.473	80.178861
695.683	80.464704
695.894	80.598413
696.104	80.598619
696.314	80.778659
696.524	80.820978
696.734	80.317931
696.944	79.844196
697.154	79.818222
697.365	79.670953
697.575	79.438738
697.785	79.285285
697.995	78.961427
698.205	78.850959
698.415	78.766334
698.625	78.475051
698.834	78.571247
699.044	79.170539
699.254	79.820011
699.464	80.441026
699.674	81.146991
699.884	81.183053
700.094	80.870136
700.304	80.616886
700.513	80.108979
700.723	79.556233
700.933	79.180795
701.143	78.596561
701.353	77.876281
701.562	77.182740
701.772	76.447600
701.982	76.053687
702.191	76.181912
702.401	76.264496
702.611	76.365246
702.820	76.469617
703.030	76.688547
703.239	76.915176
703.449	77.075324
703.659	77.267989
703.868	77.747154
704.078	78.338982
704.287	78.611596
704.497	78.583269
704.706	78.352088
704.916	77.893061
705.125	77.631367
705.334	77.547528
705.544	77.510180
705.753	77.489009
705.962	77.471721
706.172	77.095027
706.381	76.785926
706.590	76.400272
706.800	76.214520
707.009	76.465889
707.218	76.978440
707.428	77.360424
707.637	77.295128
707.846	77.275526
708.055	77.646050
708.264	78.249627
708.474	78.888154
708.683	79.216826
708.892	79.456664
709.101	79.469020
709.310	79.282374
709.519	79.123010
709.728	79.212712
709.937	79.701690
710.146	79.908623
710.355	79.385266
710.564	78.469433
710.773	77.617390
710.982	76.950651
711.191	76.519040
711.400	76.251724
711.609	76.265499
711.818	76.329097
712.027	76.124646
712.235	75.895112
712.444	75.800051
712.653	75.959110
712.862	76.274432
713.071	76.352710
713.279	76.227073
713.488	76.217595
713.697	76.486974
713.906	76.721342
714.114	76.815040
714.323	76.765720
714.532	76.524882
714.740	76.250423
714.949	76.039248
715.157	75.954484
715.366	76.052070
715.575	76.249332
715.783	76.205495
715.992	75.862640
716.200	75.307627
716.409	74.724479
716.617	74.457141
716.826	74.285659
717.034	74.216687
717.242	74.332285
717.451	74.554889
717.659	74.855758
717.868	75.132430
718.076	75.405257
718.284	75.663579
718.493	75.908483
718.701	76.013214
718.909	76.113608
719.118	76.372017
719.326	76.369240
719.534	76.049722
719.742	75.593567
719.951	75.148529
720.159	74.786336
720.367	74.787131
720.575	74.875400
720.783	74.825702
720.991	74.948431
721.199	75.105699
721.408	75.082152
721.616	75.189626
721.824	75.482981
722.032	75.610052
722.240	75.608147
722.448	75.660690
722.656	75.536595
722.864	75.188777
723.072	74.812718
723.280	74.303521
723.487	73.528795
723.695	72.839131
723.903	72.384906
724.111	71.918621
724.319	71.489652
724.527	71.090199
724.735	70.797448
724.942	70.493932
725.150	70.306236
725.358	70.242089
725.566	70.322965
725.773	70.598882
725.981	70.850834
726.189	70.800237
726.396	70.760725
726.604	70.801747
726.812	70.892976
727.019	70.761572
727.227	70.329882
727.435	69.864456
727.642	69.789519
727.850	69.781201
728.057	69.520585
728.265	69.115969
728.472	68.960068
728.680	68.834557
728.887	68.564900
729.095	68.240676
729.302	67.951145
729.509	67.844751
729.717	68.018825
729.924	68.059556
730.132	67.976862
730.339	68.080474
730.546	68.398746
730.753	68.541420
730.961	68.512289
731.168	68.526999
731.375	68.489946
731.583	68.456616
731.790	68.697503
731.997	69.080301
732.204	69.336304
732.411	69.411093
732.618	69.208723
732.826	68.896094
733.033	68.774917
733.240	68.802088
733.447	68.870620
733.654	68.972634
733.861	69.047698
734.068	68.748902
734.275	68.136026
734.482	67.530755
734.689	67.072130
734.896	66.775743
735.103	66.447246
735.310	66.059571
735.517	65.701770
735.724	65.524258
735.931	65.535943
736.137	65.499234
736.344	65.489058
736.551	65.377789
736.758	65.196039
736.965	65.154562
737.171	65.342816
737.378	65.612683
737.585	65.677540
737.792	65.669195
737.998	65.669343
738.205	65.502314
738.412	65.078073
738.618	64.650258
738.825	64.578164
739.032	64.645602
739.238	64.714436
739.445	64.626601
739.651	64.171383
739.858	63.709229
740.064	63.219288
740.271	62.674183
740.477	62.338444
740.684	62.398336
740.890	62.483520
741.097	62.123252
741.303	61.550865
741.510	60.987678
741.716	60.501461
741.922	60.172256
742.129	59.811669
742.335	59.547208
742.541	59.176599
742.748	58.782018
742.954	58.439947
743.160	58.105799
743.366	58.048639
743.573	58.132229
743.779	58.134791
743.985	58.127591
744.191	58.262606
744.397	58.535984
744.604	58.671695
744.810	58.911566
745.016	59.138608
745.222	59.251301
745.428	59.427182
745.634	59.522445
745.840	59.653232
746.046	59.700001
746.252	59.591471
746.458	59.323981
746.664	59.091658
746.870	58.970633
747.076	58.456195
747.282	57.811743
747.488	57.519412
747.694	57.387171
747.900	57.353701
748.105	57.263946
748.311	57.120599
748.517	56.974562
748.723	56.896466
748.929	56.545627
749.134	55.847810
749.340	55.340607
749.546	54.917602
749.752	54.224653
749.957	53.468769
750.163	52.812914
750.369	52.119156
750.574	51.596418
750.780	51.219356
750.985	50.725278
751.191	50.399503
751.397	50.454940
751.602	50.668437
751.808	50.851949
752.013	51.116582
752.219	51.329830
752.424	51.205946
752.630	50.880834
752.835	50.478795
753.041	50.076759
753.246	49.892142
753.451	49.742257
753.657	49.516413
753.862	49.361732
754.067	49.095656
754.273	48.564485
754.478	48.104896
754.683	47.760350
754.889	47.556282
755.094	47.356697
755.299	47.084368
755.504	46.738789
755.710	46.234509
755.915	45.810809
756.120	45.199060
756.325	44.659075
756.530	44.318749
756.735	43.801349
756.940	43.265191
757.146	42.864646
757.351	42.571857
757.556	42.471068
757.761	42.439799
757.966	42.596634
758.171	42.571435
758.376	42.422700
758.581	42.173991
758.786	41.892561
758.990	41.604536
759.195	41.361297
759.400	41.053195
759.605	40.594445
759.810	40.025897
760.015	39.472694
760.220	38.818124
760.424	38.223644
760.629	37.814206
760.834	37.486466
761.039	37.252688
761.244	37.093841
761.448	36.815499
761.653	36.580806
761.858	36.367750
762.062	35.991257
762.267	35.512544
762.472	35.137494
762.676	34.912047
762.881	34.702920
763.085	34.486028
763.290	34.116884
763.494	33.597325
763.699	33.079010
763.903	32.503849
764.108	31.896814
764.312	31.519291
764.517	31.309408
764.721	30.985664
764.926	30.588034
765.130	30.062462
765.335	29.545850
765.539	29.019162
765.743	28.684756
765.948	28.409128
766.152	28.107931
766.356	27.875766
766.560	27.677687
766.765	27.465782
766.969	27.301219
767.173	27.199586
767.377	27.137989
767.582	27.114454
767.786	27.002981
767.990	26.719480
768.194	26.456531
768.398	26.156799
768.602	25.838469
768.806	25.372680
769.010	24.873787
769.215	24.394210
769.419	23.838253
769.623	23.380723
769.827	22.911946
770.031	22.570238
770.234	22.240423
770.438	21.773997
770.642	21.436381
770.846	21.099549
771.050	20.746963
771.254	20.449478
771.458	20.159535
771.662	19.945838
771.866	19.708074
772.069	19.456927
772.273	19.223488
772.477	19.021397
772.681	18.915689
772.885	18.796826
773.088	18.673817
773.292	18.551862
773.496	18.330037
773.699	18.136709
773.903	17.861257
774.107	17.608656
774.310	17.423789
774.514	17.105099
774.717	16.809517
774.921	16.638381
775.124	16.475609
775.328	16.366041
775.531	16.271161
775.735	16.074877
775.938	15.845760
776.142	15.581471
776.345	15.360832
776.549	15.109693
776.752	14.940364
776.956	14.815645
777.159	14.582689
777.362	14.228585
777.566	13.784753
777.769	13.428287
777.972	13.234444
778.176	13.138971
778.379	13.033968
778.582	12.929736
778.785	12.737839
778.989	12.596777
779.192	12.452083
779.395	12.376777
779.598	12.375590
779.801	12.454989
780.004	12.319831
780.207	12.195183
780.411	12.024940
780.614	11.983851
780.817	11.981741
781.020	12.047428
781.223	12.063200
781.426	12.066204
781.629	12.000702
781.832	11.897236
782.035	11.758503
782.238	11.655658
782.440	11.601438
782.643	11.683320
782.846	11.769014
783.049	11.719001
783.252	11.601089
783.455	11.513769
783.658	11.456147
783.860	11.366877
784.063	11.367567
784.266	11.473794
784.469	11.692524
784.671	11.958038
784.874	12.123359
785.077	12.160216
785.279	12.265098
785.482	12.442867
785.685	12.598352
785.887	12.874491
786.090	13.102738
786.293	13.173668
786.495	13.265135
786.698	13.389283
786.900	13.333190
787.103	13.293351
787.305	13.352143
787.508	13.561379
787.710	13.598566
787.913	13.616010
788.115	13.505410
788.317	13.570124
788.520	13.715807
788.722	13.851018
788.924	14.054720
789.127	14.276258
789.329	14.418842
789.531	14.606761
789.734	14.621172
789.936	14.832649
790.138	15.045123
790.340	15.252936
790.543	15.403219
790.745	15.550100
790.947	15.787764
791.149	15.865112
791.351	16.005913
791.553	16.214722
791.756	16.344039
791.958	16.506488
792.160	16.686876
792.362	16.881213
792.564	17.106659
792.766	17.318422
792.968	17.516129
793.170	17.478916
793.372	17.655337
793.574	17.833126
793.776	17.978435
793.978	18.226228
794.180	18.571546
794.381	18.886615
794.583	19.308363
794.785	19.584764
794.987	19.855967
795.189	20.291365
795.391	20.887661
795.592	21.265592
795.794	21.580469
795.996	22.018847
796.198	22.393042
796.399	22.654054
796.601	22.874626
796.803	23.002172
797.004	23.358120
797.206	23.688100
797.407	23.781914
797.609	23.835289
797.811	23.953381
798.012	24.183295
798.214	24.367417
798.415	24.521445
798.617	24.671270
798.818	24.893714
799.020	25.235476
799.221	25.372129
799.423	25.474988
799.624	25.674920
799.826	25.929886
800.027	26.322513
800.228	26.635701
800.430	26.960776
800.631	27.374283
800.832	27.772086
801.034	28.075896
801.235	28.244633
801.436	28.455216
801.637	28.800747
801.839	29.290587
802.040	29.555110
802.241	29.653026
802.442	29.878596
802.643	30.011478
802.844	30.125369
803.046	30.344846
803.247	30.573881
803.448	30.826414
803.649	31.135206
803.850	31.455613
804.051	31.729297
804.252	32.100770
804.453	32.640036
804.654	33.123390
804.855	33.645253
805.056	34.103562
805.257	34.221663
805.458	34.437260
805.659	34.733721
805.859	35.047727
806.060	35.310703
806.261	35.437782
806.462	35.461188
806.663	35.418226
806.864	35.389408
807.064	35.385623
807.265	35.657482
807.466	36.094991
807.667	36.430242
807.867	36.796683
808.068	37.306615
808.269	37.741527
808.469	38.295762
808.670	38.960526
808.870	39.468014
809.071	39.795901
809.272	40.052250
809.472	39.979705
809.673	40.061488
809.873	40.164938
810.074	40.168701
810.274	40.045833
810.475	40.011981
810.675	40.031851
810.876	40.192364
811.076	40.453929
811.276	40.771907
811.477	41.101170
811.677	41.436661
811.878	41.665234
812.078	41.735267
812.278	41.873775
812.479	42.188245
812.679	42.529637
812.879	42.579891
813.079	42.580152
813.280	42.500544
813.480	42.369752
813.680	42.273369
813.880	42.418964
814.080	42.790795
814.280	43.353643
814.480	43.707073
814.681	43.806899
814.881	43.942620
815.081	44.296048
815.281	44.658938
815.481	45.254391
815.681	46.054923
815.881	46.686112
816.081	47.060648
816.281	47.093065
816.481	47.041611
816.681	47.223128
816.880	47.511041
817.080	47.697728
817.280	47.913855
817.480	47.928930
817.680	47.852157
817.880	47.832468
818.080	47.953126
818.279	48.138241
818.479	48.561417
818.679	48.973544
818.879	49.266856
819.078	49.252574
819.278	49.002005
819.478	48.821431
819.677	48.856782
819.877	49.032432
820.077	49.250902
820.276	49.416470
820.476	49.570157
820.675	49.664051
820.875	49.910517
821.074	50.130906
821.274	50.480044
821.473	50.990570
821.673	51.471535
821.872	52.068027
822.072	52.620384
822.271	52.914555
822.471	53.055652
822.670	53.016279
822.869	53.023453
823.069	53.138654
823.268	53.376794
823.467	53.770810
823.667	54.182163
823.866	54.470919
824.065	54.480064
824.265	54.236906
824.464	54.028481
824.663	54.180576
824.862	54.599813
825.061	55.034833
825.261	55.032891
825.460	54.752678
825.659	54.512898
825.858	54.417709
826.057	54.402304
826.256	54.491893
826.455	54.763514
826.654	55.130560
826.853	55.267622
827.052	55.286251
827.251	55.291729
827.450	55.305049
827.649	55.299923
827.848	55.245371
828.047	55.301213
828.246	55.556466
828.445	55.590322
828.644	55.491732
828.843	55.508448
829.041	55.812196
829.240	56.102412
829.439	56.158093
829.638	56.152804
829.836	56.221986
830.035	56.420754
830.234	56.525554
830.433	56.449433
830.631	56.805985
830.830	57.502529
831.029	58.013876
831.227	58.235300
831.426	58.464510
831.624	58.739548
831.823	59.328984
832.022	60.199894
832.220	60.905270
832.419	61.339550
832.617	61.373887
832.816	61.269207
833.014	61.156771
833.213	61.173973
833.411	61.296563
833.609	61.434040
833.808	61.466037
834.006	61.190801
834.205	60.803240
834.403	60.662229
834.601	60.773894
834.800	61.270954
834.998	61.432571
835.196	61.027697
835.394	60.575934
835.593	60.200038
835.791	60.003003
835.989	59.943670
836.187	60.213771
836.385	60.565016
836.584	60.622846
836.782	60.551122
836.980	60.433173
837.178	60.796172
837.376	61.392845
837.574	61.857625
837.772	62.186495
837.970	62.306863
838.168	62.758469
838.366	63.236550
838.564	63.668934
838.762	63.917640
838.960	63.925414
839.158	63.889638
839.356	63.672028
839.554	63.904643
839.752	64.148319
839.949	64.482354
840.147	64.897686
840.345	64.920297
840.543	64.942462
840.741	65.181367
840.938	65.590543
841.136	66.012034
841.334	66.281709
841.532	66.511709
841.729	66.163871
841.927	65.749533
842.125	65.496046
842.322	65.379790
842.520	65.401396
842.718	65.440071
842.915	65.154083
843.113	65.066837
843.310	65.287546
843.508	65.735428
843.705	65.694724
843.903	65.465611
844.100	65.461391
844.298	65.277832
844.495	64.985539
844.693	65.082430
844.890	65.345627
845.087	65.380134
845.285	65.170183
845.482	64.905997
845.679	64.308310
845.877	64.173884
846.074	64.566583
846.271	64.654698
846.469	64.712322
846.666	64.687756
846.863	64.520649
847.060	64.378097
847.257	64.618117
847.455	65.260251
847.652	65.793454
847.849	66.273076
848.046	66.615203
848.243	66.724804
848.440	67.159149
848.637	67.699291
848.834	68.069247
849.031	68.301596
849.228	68.528602
849.425	68.760779
849.622	68.643416
849.819	68.660517
850.016	68.856480
850.213	68.925503
850.410	68.862350
850.607	68.902288
850.804	69.051631
851.001	69.472998
851.198	69.833461
851.394	69.844682
851.591	69.691215
851.788	69.796107
851.985	69.805536
852.181	69.694245
852.378	69.780445
852.575	69.998439
852.772	70.147463
852.968	70.050564
853.165	69.944995
853.362	69.613625
853.558	69.457671
853.755	69.539528
853.951	69.636437
854.148	69.767628
854.345	69.690036
854.541	69.798460
854.738	69.914184
854.934	69.689540
855.131	69.601477
855.327	69.644616
855.523	69.956757
855.720	70.307870
855.916	70.270450
856.113	69.882629
856.309	69.511825
856.505	69.642668
856.702	69.829285
856.898	69.957956
857.094	70.089027
857.291	69.983279
857.487	69.719315
857.683	69.491215
857.879	69.132733
858.076	68.761228
858.272	68.451278
858.468	68.301112
858.664	68.354270
858.860	68.026210
859.056	67.790275
859.253	67.749522
859.449	67.895890
859.645	68.172233
859.841	67.951079
860.037	67.670391
860.233	67.685621
860.429	67.708755
860.625	67.535165
860.821	67.301122
861.017	67.431905
861.213	67.632860
861.409	67.916787
861.604	68.229972
861.800	68.017742
861.996	67.991342
862.192	67.908580
862.388	67.717379
862.584	67.900480
862.779	68.343054
862.975	68.781022
863.171	69.127518
863.367	69.336205
863.562	69.334241
863.758	69.183176
863.954	69.286522
864.149	69.410894
864.345	69.638512
864.541	69.917600
864.736	69.708383
864.932	69.468515
865.127	69.505037
865.323	69.201247
865.518	69.040907
865.714	69.130131
865.910	69.206589
866.105	69.538826
866.300	70.305531
866.496	70.768031
866.691	71.114239
866.887	71.565849
867.082	71.704269
867.277	71.313776
867.473	71.003605
867.668	70.909622
867.864	70.671456
868.059	70.493113
868.254	69.990055
868.449	69.216014
868.645	68.747510
868.840	68.517309
869.035	68.503436
869.230	68.897162
869.425	69.440600
869.621	69.891660
869.816	70.140049
870.011	70.647806
870.206	71.349744
870.401	72.271541
870.596	72.836246
870.791	73.291673
870.986	73.642325
871.181	73.650693
871.376	73.398065
871.571	72.668539
871.766	72.063888
871.961	71.353962
872.156	70.311293
872.351	69.466100
872.546	68.797027
872.741	68.498995
872.936	68.614074
873.130	68.842066
873.325	69.026280
873.520	69.410780
873.715	70.033847
873.910	70.809912
874.104	71.513123
874.299	72.583676
874.494	73.621479
874.688	74.068076
874.883	73.985764
875.078	73.721705
875.272	73.439511
875.467	73.477362
875.662	73.495089
875.856	73.597919
876.051	73.551989
876.245	73.537830
876.440	73.528611
876.634	73.442701
876.829	73.689952
877.023	74.153173
877.218	74.689009
877.412	75.187277
877.607	75.553334
877.801	75.742766
877.995	76.116561
878.190	76.473901
878.384	76.519127
878.578	76.430846
878.773	76.202319
878.967	75.647217
879.161	75.506591
879.356	75.157289
879.550	74.426185
879.744	73.915574
879.938	73.420264
880.133	72.741200
880.327	72.197979
880.521	71.825072
880.715	71.396945
880.909	70.678306
881.103	70.446893
881.297	70.234568
881.491	70.227893
881.685	70.495668
881.880	70.460433
882.073	70.515294
882.267	70.430396
882.461	70.043063
882.655	70.260998
882.849	70.771223
883.043	71.331178
883.237	71.804204
883.431	72.190764
883.625	72.602063
883.819	72.386726
884.013	72.357150
884.206	72.143946
884.400	71.937369
884.594	72.190613
884.788	72.248836
884.982	72.056921
885.175	72.142162
885.369	72.475559
885.563	72.587856
885.756	72.234981
885.950	72.608518
886.144	72.978485
886.337	73.527796
886.531	74.291650
886.724	74.850697
886.918	75.327841
887.112	75.736081
887.305	76.171522
887.499	76.361515
887.692	76.565747
887.885	77.239344
888.079	77.828164
888.272	77.989948
888.466	77.709872
888.659	77.542840
888.853	77.742763
889.046	77.695432
889.239	77.548255
889.433	76.827945
889.626	76.149554
889.819	75.920644
890.013	75.492546
890.206	74.968935
890.399	74.794312
890.592	74.823923
890.785	74.877308
890.979	74.607014
891.172	74.093277
891.365	73.415567
891.558	72.845463
891.751	72.061470
891.944	71.030260
892.137	70.223689
892.330	69.825225
892.524	69.824766
892.717	70.094514
892.910	70.397743
893.103	70.971960
893.296	71.974223
893.488	73.157020
893.681	74.194784
893.874	75.134170
894.067	75.889416
894.260	76.161496
894.453	76.115320
894.646	76.085739
894.839	75.761192
895.031	75.465628
895.224	75.114135
895.417	74.695340
895.610	74.493629
895.802	74.719200
895.995	74.924401
896.188	75.509641
896.381	76.230935
896.573	76.722312
896.766	76.981824
896.958	77.194917
897.151	77.311300
897.344	77.155689
897.536	76.862418
897.729	76.765958
897.921	77.093229
898.114	77.942609
898.306	78.375230
898.499	78.826817
898.691	79.587512
898.884	80.088267
899.076	80.614713
899.269	81.324614
899.461	81.988394
899.653	82.629092
899.846	82.967852
900.038	82.867991
900.230	82.099296
900.423	81.581059
900.615	81.130430
900.807	80.507382
901.000	80.346362
901.192	80.209807
901.384	79.626524
901.576	79.418569
901.768	79.327729
901.961	79.344079
902.153	79.526600
902.345	79.877894
902.537	80.018840
902.729	80.347734
902.921	80.727148
903.113	80.703315
903.305	80.599210
903.497	80.798316
903.689	80.672503
903.881	80.811441
904.073	80.915254
904.265	81.276267
904.457	82.253821
904.649	82.948408
904.841	83.206252
905.033	83.652838
905.224	84.251817
905.416	85.165081
905.608	85.905615
905.800	86.286675
905.992	85.916926
906.183	84.982832
906.375	83.322290
906.567	81.883968
906.759	80.938884
906.950	79.836381
907.142	78.710438
907.334	77.739903
907.525	76.656175
907.717	75.374115
907.909	74.451749
908.100	74.252250
908.292	74.114894
908.483	74.485913
908.675	74.186476
908.866	73.779488
909.058	73.609058
909.249	73.701791
909.441	73.621980
909.632	73.528687
909.824	73.657358
910.015	73.529771
910.206	72.981122
910.398	73.207392
910.589	73.364808
910.780	73.547301
910.972	73.982035
911.163	74.591051
911.354	74.933569
911.546	75.078396
911.737	75.093732
911.928	75.076292
912.119	75.396312
912.310	75.756009
912.502	75.338313
912.693	75.082326
912.884	75.167025
913.075	74.807793
913.266	74.863294
913.457	75.097118
913.648	75.436024
913.839	75.920236
914.030	76.493145
914.221	77.044748
914.412	78.228596
914.603	79.583980
914.794	80.449770
914.985	80.746180
915.176	81.141409
915.367	81.157811
915.558	80.528514
915.749	80.162028
915.940	79.797544
916.130	79.307374
916.321	78.615264
916.512	77.621678
916.703	77.051163
916.893	77.077128
917.084	77.512621
917.275	77.967710
917.466	78.293335
917.656	78.826087
917.847	78.998992
918.038	79.183716
918.228	79.519144
918.419	80.350314
918.609	80.908055
918.800	80.786113
918.990	80.048609
919.181	79.181117
919.372	78.408891
919.562	77.687290
919.753	77.452223
919.943	77.488431
920.133	77.451257
920.324	77.218363
920.514	76.926054
920.705	76.626493
920.895	76.556462
921.085	76.881573
921.276	77.824062
921.466	78.877241
921.656	79.975441
921.847	80.737143
922.037	81.474246
922.227	82.238728
922.417	83.062124
922.608	83.495543
922.798	83.845811
922.988	84.069628
923.178	84.003314
923.368	83.452102
923.558	83.385402
923.748	82.938531
923.939	82.583186
924.129	82.257299
924.319	81.789835
924.509	81.401050
924.699	80.645286
924.889	79.857921
925.079	79.378586
925.269	79.036759
925.459	78.817189
925.648	78.630814
925.838	78.812769
926.028	79.044308
926.218	79.441031
926.408	79.598323
926.598	79.552686
926.788	80.165955
926.977	81.159561
927.167	82.120712
927.357	83.008761
927.547	83.580130
927.736	83.643640
927.926	83.466881
928.116	83.071976
928.305	82.639911
928.495	82.423804
928.685	82.236147
928.874	82.124545
929.064	81.947628
929.253	82.281395
929.443	82.638871
929.633	83.081215
929.822	83.398281
930.012	83.588618
930.201	83.648297
930.391	83.452014
930.580	83.350356
930.769	83.328563
930.959	83.482175
931.148	83.874279
931.338	83.445723
931.527	83.102561
931.716	82.873589
931.906	82.498813
932.095	81.964520
932.284	81.840612
932.474	81.855601
932.663	81.656877
932.852	81.212197
933.041	80.166465
933.230	78.980646
933.420	78.492066
933.609	78.305665
933.798	77.744804
933.987	77.459194
934.176	77.357260
934.365	77.071298
934.554	76.856728
934.743	77.499773
934.932	78.601314
935.121	79.721844
935.310	80.596920
935.499	81.613593
935.688	81.967736
935.877	82.566534
936.066	83.322762
936.255	84.058836
936.444	84.641979
936.633	84.950769
936.822	84.891670
937.010	84.943073
937.199	85.087658
937.388	84.531158
937.577	83.848952
937.766	83.366787
937.954	83.114330
938.143	82.941498
938.332	82.874109
938.520	83.081868
938.709	83.425691
938.898	83.693513
939.086	83.649237
939.275	83.218372
939.464	83.318359
939.652	83.242704
939.841	83.576312
940.029	83.571849
940.218	83.248933
940.406	83.117490
940.595	82.885558
940.783	82.757593
940.972	82.768272
941.160	82.768910
941.349	83.651182
941.537	84.348414
941.725	84.731487
941.914	85.230067
942.102	85.763135
942.290	86.025154
942.479	86.187295
942.667	86.055645
942.855	85.922917
943.043	85.542234
943.232	85.232355
943.420	84.770095
943.608	84.188062
943.796	83.812091
943.984	83.091365
944.172	82.091376
944.361	81.462870
944.549	81.543932
944.737	82.004253
944.925	82.428913
945.113	82.904133
945.301	82.937008
945.489	82.880978
945.677	83.419024
945.865	83.381578
946.053	83.478713
946.241	83.944198
946.429	84.537318
946.617	84.099118
946.805	83.890750
946.992	83.924010
947.180	83.915727
947.368	84.109399
947.556	83.982017
947.744	83.945430
947.931	84.491982
948.119	84.853273
948.307	85.257133
948.495	85.742408
948.682	86.762424
948.870	87.300663
949.058	87.535670
949.245	87.025569
949.433	86.344103
949.621	85.837457
949.808	85.061941
949.996	84.540027
950.183	84.814977
950.371	85.196309
950.558	84.815383
950.746	84.595205
950.933	84.643619
951.121	84.296201
951.308	84.761748
951.496	85.378097
951.683	86.177990
951.870	87.715382
952.058	88.710393
952.245	88.517083
952.433	88.181882
952.620	88.382404
952.807	88.087916
952.994	87.843331
953.182	88.045356
953.369	88.111702
953.556	87.970040
953.743	87.498508
953.931	86.581215
954.118	85.473051
954.305	84.799234
954.492	84.364136
954.679	84.105478
954.866	83.836474
955.053	83.588476
955.240	83.461444
955.427	83.215220
955.615	83.610109
955.802	84.505256
955.989	84.732061
956.175	85.236989
956.362	85.800661
956.549	85.877367
956.736	85.086131
956.923	84.664026
957.110	83.846844
957.297	83.390714
957.484	83.123161
957.671	82.820302
957.857	82.336447
958.044	82.093749
958.231	81.792709
958.418	81.138012
958.604	81.163543
958.791	81.431434
958.978	81.124170
959.165	81.240997
959.351	81.543410
959.538	82.254889
959.724	82.231926
959.911	81.931819
960.098	82.358410
960.284	83.405394
960.471	84.242695
960.657	84.468744
960.844	85.150832
961.030	86.026815
961.217	86.360432
961.403	85.726239
961.590	84.842393
961.776	84.620036
961.963	84.752963
962.149	84.219759
962.335	83.047854
962.522	82.538029
962.708	81.883634
962.894	81.081674
963.081	80.403765
963.267	80.042976
963.453	79.811224
963.639	79.973577
963.826	80.190085
964.012	80.501355
964.198	80.736476
964.384	80.871574
964.570	80.491472
964.756	81.012752
964.943	81.515262
965.129	82.226509
965.315	83.000483
965.501	83.492881
965.687	83.291425
965.873	83.642076
966.059	83.542285
966.245	83.661913
966.431	84.347562
966.617	85.766485
966.803	86.170313
966.989	86.727324
967.174	87.287983
967.360	87.155284
967.546	86.913215
967.732	87.574977
967.918	87.870803
968.104	88.386918
968.289	88.369569
968.475	87.945155
968.661	87.622473
968.847	87.207314
969.032	87.091538
969.218	86.737295
969.404	86.855334
969.589	87.285304
969.775	86.391698
969.961	85.236594
970.146	84.379644
970.332	84.075173
970.517	83.476151
970.703	82.139010
970.888	81.742991
971.074	81.286913
971.260	81.050112
971.445	81.642466
971.630	82.312679
971.816	83.375002
972.001	84.375963
972.187	84.500447
972.372	84.390333
972.557	84.931072
972.743	85.383547
972.928	85.683663
973.113	85.689685
973.299	86.070140
973.484	85.692636
973.669	85.298235
973.854	85.035380
974.040	84.725241
974.225	84.977591
974.410	85.552869
974.595	85.721058
974.780	86.313389
974.965	86.999000
975.151	87.372503
975.336	87.019727
975.521	87.158795
975.706	87.915586
975.891	88.264722
976.076	88.254580
976.261	87.974580
976.446	87.164084
976.631	86.896364
976.816	86.329407
977.001	85.672141
977.186	85.334153
977.370	86.093408
977.555	86.863396
977.740	86.898840
977.925	86.875874
978.110	87.481741
978.295	87.745854
978.479	88.157366
978.664	88.622530
978.849	89.120162
979.034	89.518865
979.218	90.196089
979.403	90.054437
979.588	89.632378
979.772	89.547911
979.957	89.814725
980.141	89.982278
980.326	90.663765
980.511	91.157603
980.695	91.403645
980.880	91.502899
981.064	91.485555
981.249	91.229614
981.433	90.624841
981.618	90.226482
981.802	89.454728
981.987	88.828945
982.171	87.871334
982.355	86.619066
982.540	86.360600
982.724	86.398664
982.908	86.623277
983.093	86.580047
983.277	86.600529
983.461	86.830987
983.646	86.734048
983.830	86.852632
984.014	87.149692
984.198	87.384669
984.382	88.095015
984.567	88.738193
984.751	89.032109
984.935	88.909959
985.119	88.889199
985.303	88.424893
985.487	88.088553
985.671	87.633849
985.855	87.640873
986.039	87.316379
986.223	87.517989
986.407	87.787338
986.591	87.551263
986.775	86.724025
986.959	87.233747
987.143	87.221374
987.327	87.451825
987.511	87.348721
987.695	87.427202
987.879	87.670701
988.062	88.218533
988.246	88.061450
988.430	87.511567
988.614	87.008821
988.797	87.088748
988.981	86.188121
989.165	85.699747
989.349	85.396604
989.532	85.249787
989.716	85.400359
989.900	85.772908
990.083	85.949315
990.267	86.696296
990.450	87.891068
990.634	88.792331
990.817	90.359300
991.001	92.078190
991.184	93.210309
991.368	93.690739
991.551	94.403520
991.735	94.750602
991.918	94.544476
992.102	94.048046
992.285	93.444190
992.469	91.920069
992.652	91.275646
992.835	90.221806
993.019	89.181243
993.202	89.156286
993.385	89.288168
993.568	90.219726
993.752	91.756852
993.935	92.802445
994.118	93.563733
994.301	94.272334
994.484	95.550438
994.668	95.740941
994.851	94.771989
995.034	94.244635
995.217	93.420093
995.400	93.388779
995.583	92.530288
995.766	91.030590
995.949	90.285458
996.132	89.819812
996.315	89.632052
996.498	89.027690
996.681	88.717827
996.864	88.967484
997.047	89.018887
997.230	89.020441
997.413	89.694569
997.596	89.801404
997.778	89.388732
997.961	88.518095
998.144	88.649952
998.327	88.516136
998.510	88.687437
998.692	89.524348
998.875	89.750297
999.058	90.193800
999.241	90.737919
999.423	89.837372
999.606	89.937478
999.789	90.695056
999.971	91.378987
1000.154	91.638214
1000.336	92.301876
1000.519	93.176898
1000.701	92.936353
1000.884	93.233882
1001.067	93.906963
1001.249	94.131505
1001.431	94.505505
1001.614	94.142892
1001.796	94.375560
1001.979	95.065712
1002.161	94.962206
1002.344	94.533942
1002.526	93.362506
1002.708	92.865513
1002.891	93.159805
1003.073	93.278436
1003.255	93.544014
1003.438	93.830056
1003.620	93.981426
1003.802	93.163291
1003.984	91.896737
1004.166	91.096057
1004.349	90.591160
1004.531	91.226015
1004.713	92.021057
1004.895	91.667144
1005.077	90.594250
1005.259	90.522255
1005.441	91.090724
1005.623	90.905153
1005.805	90.718554
1005.987	90.375544
1006.169	91.095812
1006.351	91.222845
1006.533	90.817730
1006.715	90.034467
1006.897	90.601879
1007.079	91.093779
1007.261	91.503104
1007.443	91.155780
1007.625	90.852081
1007.806	91.019691
1007.988	91.905880
1008.170	92.193961
1008.352	92.412716
1008.534	91.894859
1008.715	91.913090
1008.897	91.860243
1009.079	92.412506
1009.260	92.710488
1009.442	92.676404
1009.624	92.914337
1009.805	92.988427
1009.987	93.241772
1010.169	93.725776
1010.350	94.073077
1010.532	94.921985
1010.713	94.930279
1010.895	94.200450
1011.076	93.560205
1011.258	92.921193
1011.439	92.830923
1011.621	93.368202
1011.802	93.964301
1011.983	94.322909
1012.165	93.322580
1012.346	92.709063
1012.527	92.119002
1012.709	92.527885
1012.890	93.181367
1013.071	92.066610
1013.253	90.928411
1013.434	90.926641
1013.615	90.589015
1013.796	90.734719
1013.978	90.883599
1014.159	90.708229
1014.340	91.320214
1014.521	91.814416
1014.702	91.920492
1014.883	91.393242
1015.064	92.588025
1015.245	93.270784
1015.427	92.189182
1015.608	91.947991
1015.789	91.966401
1015.970	91.748291
1016.151	91.621223
1016.332	89.925539
1016.512	88.439616
1016.693	87.661468
1016.874	87.212565
1017.055	86.365474
1017.236	85.899598
1017.417	86.729648
1017.598	86.744215
1017.779	85.996318
1017.959	86.114716
1018.140	86.626455
1018.321	88.469674
1018.502	90.141429
1018.682	91.310351
1018.863	92.374693
1019.044	93.661077
1019.224	94.219419
1019.405	94.361746
1019.586	95.119985
1019.766	96.244715
1019.947	95.589392
1020.127	94.890189
1020.308	94.245900
1020.488	94.318803
1020.669	93.726828
1020.849	94.485408
1021.030	94.745635
1021.210	95.370638
1021.391	96.442188
1021.571	95.662095
1021.752	94.629036
1021.932	94.258856
1022.112	94.162536
1022.293	94.012242
1022.473	94.047868
1022.653	95.214661
1022.834	95.911799
1023.014	95.824369
1023.194	95.946268
1023.374	95.370471
1023.555	96.357379
1023.735	96.738573
1023.915	96.718644
1024.095	96.845914
1024.275	97.466603
1024.455	97.600399
1024.635	96.795195
1024.816	95.144368
1024.996	94.194494
1025.176	93.696632
1025.356	92.706434
1025.536	91.886307
1025.716	90.789703
1025.896	90.717488
1026.076	91.018416
1026.256	89.888899
1026.436	88.752916
1026.615	88.033523
1026.795	87.649778
1026.975	87.528798
1027.155	86.602026
1027.335	87.163631
1027.515	87.662999
1027.695	89.480988
1027.874	90.073483
1028.054	89.988580
1028.234	90.234550
1028.413	91.315586
1028.593	91.094499
1028.773	91.406502
1028.953	92.786088
1029.132	93.801260
1029.312	94.169758
1029.491	94.615364
1029.671	94.234077
1029.851	93.984639
1030.030	93.532306
1030.210	94.381739
1030.389	94.136663
1030.569	94.621111
1030.748	94.055621
1030.928	92.808432
1031.107	92.727301
1031.286	92.898044
1031.466	91.909164
1031.645	91.278284
1031.825	91.959106
1032.004	93.833141
1032.183	93.715807
1032.363	93.194627
1032.542	93.307024
1032.721	94.456034
1032.900	95.153832
1033.080	95.978465
1033.259	95.803029
1033.438	96.130726
1033.617	97.317603
1033.796	97.505176
1033.975	96.252799
1034.155	96.525584
1034.334	98.096740
1034.513	97.672004
1034.692	97.037079
1034.871	96.192576
1035.050	94.357540
1035.229	94.398807
1035.408	95.232528
1035.587	94.710743
1035.766	94.398294
1035.945	94.219631
1036.124	93.645295
1036.303	92.731162
1036.481	93.747670
1036.660	94.153513
1036.839	94.366437
1037.018	94.246249
1037.197	94.340987
1037.376	93.367916
1037.554	93.166075
1037.733	92.539938
1037.912	91.785023
1038.091	90.497529
1038.269	89.549875
1038.448	88.075151
1038.627	88.029481
1038.805	87.921338
1038.984	88.689827
1039.162	87.477345
1039.341	86.890163
1039.520	87.037037
1039.698	88.010728
1039.877	88.864720
1040.055	91.360940
1040.234	92.253764
1040.412	93.039501
1040.591	92.833760
1040.769	93.537371
1040.947	93.556628
1041.126	93.883558
1041.304	95.016301
1041.483	95.116053
1041.661	94.442703
1041.839	95.051581
1042.017	93.930140
1042.196	94.515360
1042.374	95.062600
1042.552	94.807600
1042.730	94.428836
1042.909	94.649454
1043.087	95.842176
1043.265	95.966526
1043.443	96.108490
1043.621	96.495281
1043.799	96.463541
1043.978	97.416134
1044.156	97.342009
1044.334	95.940729
1044.512	95.379992
1044.690	94.806766
1044.868	94.643283
1045.046	93.196374
1045.224	92.384337
1045.402	91.577086
1045.580	91.208932
1045.758	90.501298
1045.935	89.522394
1046.113	88.228134
1046.291	89.070408
1046.469	89.794656
1046.647	90.578157
1046.825	91.281643
1047.002	91.778412
1047.180	91.760124
1047.358	92.169542
1047.536	91.881821
1047.713	92.962982
1047.891	93.006840
1048.069	93.487055
1048.246	93.833526
1048.424	94.113101
1048.602	93.791583
1048.779	92.649134
1048.957	92.389284
1049.134	93.651297
1049.312	93.972002
1049.489	94.388061
1049.667	93.215963
1049.844	92.868103
1050.022	92.342743
1050.199	92.343130
1050.377	91.747338
1050.554	91.630814
1050.731	92.229933
1050.909	92.181865
1051.086	91.055571
1051.263	90.547937
1051.441	90.891293
1051.618	90.908026
1051.795	90.852784
1051.973	91.348184
1052.150	90.473799
1052.327	90.278843
1052.504	90.556849
1052.681	90.288855
1052.859	90.196340
1053.036	90.034994
1053.213	89.873408
1053.390	88.856063
1053.567	89.170848
1053.744	89.603770
1053.921	89.682687
1054.098	90.144714
1054.275	90.676537
1054.452	90.530231
1054.629	91.859720
1054.806	92.190394
1054.983	92.260804
1055.160	92.493196
1055.337	92.720669
1055.514	92.862329
1055.691	92.845149
1055.868	93.274112
1056.044	93.659478
1056.221	93.596405
1056.398	93.803001
1056.575	92.681704
1056.751	92.620304
1056.928	92.742412
1057.105	92.387943
1057.282	92.746475
1057.458	92.292384
1057.635	92.360021
1057.812	92.051957
1057.988	91.619490
1058.165	91.704338
1058.341	91.569781
1058.518	90.968591
1058.694	90.672372
1058.871	91.103843
1059.047	91.843401
1059.224	91.969026
1059.401	92.345934
1059.577	91.824481
1059.753	91.395898
1059.930	91.442790
1060.106	91.269297
1060.282	90.892502
1060.459	91.140170
1060.635	91.158881
1060.812	91.032297
1060.988	90.979491
1061.164	90.447314
1061.340	89.516368
1061.517	88.901617
1061.693	88.878936
1061.869	88.778329
1062.045	88.695862
1062.221	88.409275
1062.398	88.505606
1062.574	89.146413
1062.750	88.864914
1062.926	88.101105
1063.102	88.557509
1063.278	89.569575
1063.454	90.959347
1063.630	91.282482
1063.806	90.854326
1063.982	90.306057
1064.158	90.468883
1064.334	90.623466
1064.510	89.861507
1064.686	89.768851
1064.862	90.142036
1065.038	89.435601
1065.214	88.902482
1065.389	87.855935
1065.565	86.849691
1065.741	86.751104
1065.917	87.358285
1066.093	87.579277
1066.268	87.290507
1066.444	87.336783
1066.620	86.940950
1066.795	86.579613
1066.971	87.127067
1067.147	87.150099
1067.322	87.925588
1067.498	89.055915
1067.673	89.462099
1067.849	88.524351
1068.025	88.071238
1068.200	88.250224
1068.376	88.382385
1068.551	88.545697
1068.727	88.331185
1068.902	87.174544
1069.078	87.094493
1069.253	85.874032
1069.428	85.511972
1069.604	85.354851
1069.779	85.173119
1069.954	85.596062
1070.130	85.383674
1070.305	86.060268
1070.480	86.990527
1070.656	87.450476
1070.831	87.969217
1071.006	87.823844
1071.181	88.997453
1071.357	88.966837
1071.532	88.109323
1071.707	88.235303
1071.882	87.380348
1072.057	86.849562
1072.232	85.812803
1072.407	84.473028
1072.582	84.007187
1072.757	83.998039
1072.932	83.661972
1073.107	83.161307
1073.282	82.529828
1073.457	83.025109
1073.632	82.609984
1073.807	82.276854
1073.982	82.344487
1074.157	82.432957
1074.332	82.024732
1074.507	81.562739
1074.682	81.939015
1074.856	82.430154
1075.031	81.849112
1075.206	82.368847
1075.381	82.122028
1075.556	82.822297
1075.730	83.724474
1075.905	84.151443
1076.080	84.775354
1076.254	85.502622
1076.429	85.839544
1076.604	85.051730
1076.778	84.553554
1076.953	84.909287
1077.127	84.680918
1077.302	85.081847
1077.477	85.182460
1077.651	85.021995
1077.826	84.855882
1078.000	83.981116
1078.175	84.044701
1078.349	83.581081
1078.523	83.957092
1078.698	84.033159
1078.872	83.662062
1079.047	83.361290
1079.221	83.125579
1079.395	82.409389
1079.570	82.266348
1079.744	82.146055
1079.918	82.081973
1080.092	82.176650
1080.267	83.110700
1080.441	83.153606
1080.615	83.169741
1080.789	83.104903
1080.963	82.953972
1081.137	82.550654
1081.312	83.048614
1081.486	83.383231
1081.660	83.608794
1081.834	83.845141
1082.008	83.085870
1082.182	82.614024
1082.356	82.753236
1082.530	83.018193
1082.704	83.311404
1082.878	83.214445
1083.052	83.291941
1083.226	83.426012
1083.400	83.104933
1083.573	82.732971
1083.747	82.572734
1083.921	83.009077
1084.095	82.563915
1084.269	82.883318
1084.443	82.830329
1084.616	82.071593
1084.790	82.645977
1084.964	83.183841
1085.138	82.949199
1085.311	83.155481
1085.485	83.111819
1085.659	82.562760
1085.832	82.287526
1086.006	82.157295
1086.179	80.934230
1086.353	81.093588
1086.527	81.939500
1086.700	81.814390
1086.874	81.732992
1087.047	81.686033
1087.221	81.046486
1087.394	80.510866
1087.568	81.166858
1087.741	81.541699
1087.914	81.787777
1088.088	82.379579
1088.261	81.565160
1088.435	81.125244
1088.608	80.623937
1088.781	80.084551
1088.954	79.553978
1089.128	80.048449
1089.301	80.184718
1089.474	79.153468
1089.647	78.319651
1089.821	78.116173
1089.994	77.665169
1090.167	76.877126
1090.340	76.630592
1090.513	76.576769
1090.686	76.507120
1090.859	76.778164
1091.032	76.521372
1091.206	76.667641
1091.379	77.094237
1091.552	77.937267
1091.725	78.599873
1091.898	78.494386
1092.071	79.492470
1092.244	79.364295
1092.416	79.067858
1092.589	78.586432
1092.762	78.736014
1092.935	78.904735
1093.108	79.048337
1093.281	79.187046
1093.453	78.609814
1093.626	77.694190
1093.799	77.742981
1093.972	77.662810
1094.145	77.927076
1094.317	77.813534
1094.490	77.936721
1094.663	76.771072
1094.835	75.997690
1095.008	75.009014
1095.181	74.588806
1095.353	74.880283
1095.526	75.318085
1095.698	75.235084
1095.871	75.132970
1096.043	74.563757
1096.216	74.155076
1096.388	74.321402
1096.561	74.846352
1096.733	74.915109
1096.906	75.586740
1097.078	75.955811
1097.250	75.601604
1097.423	75.328395
1097.595	75.227749
1097.768	74.465083
1097.940	74.748654
1098.112	75.554763
1098.284	75.639001
1098.457	75.427700
1098.629	75.336781
1098.801	75.335458
1098.973	75.424255
1099.146	75.820493
1099.318	75.813765
1099.490	76.406069
1099.662	76.959110
1099.834	77.134269
1100.006	76.978245
1100.178	76.582006
1100.350	76.592413
1100.522	76.047575
1100.694	75.725957
1100.866	74.566478
1101.038	73.371221
1101.210	73.350932
1101.382	72.717076
1101.554	72.362821
1101.726	71.970948
1101.898	71.963897
1102.070	71.886637
1102.241	71.814329
1102.413	72.040123
1102.585	71.595307
1102.757	71.407650
1102.929	71.478719
1103.100	71.343061
1103.272	71.158071
1103.444	71.300474
1103.616	71.080256
1103.787	70.915084
1103.959	70.626107
1104.130	70.845571
1104.302	71.157990
1104.474	71.293362
1104.645	70.917529
1104.817	70.295602
1104.988	70.025014
1105.160	69.643077
1105.331	69.062194
1105.503	69.205382
1105.674	69.001411
1105.846	69.183741
1106.017	68.817389
1106.189	67.944407
1106.360	67.194499
1106.531	67.528736
1106.703	68.006189
1106.874	68.387929
1107.045	68.900398
1107.217	69.042757
1107.388	68.877344
1107.559	68.622152
1107.730	68.658791
1107.902	68.770043
1108.073	68.692082
1108.244	68.945810
1108.415	69.111160
1108.586	69.114371
1108.757	67.936592
1108.929	67.069887
1109.100	66.858039
1109.271	66.802552
1109.442	66.539903
1109.613	65.942031
1109.784	65.494588
1109.955	65.605756
1110.126	65.473472
1110.297	65.644140
1110.468	65.277777
1110.639	65.910068
1110.809	66.191184
1110.980	66.450419
1111.151	66.152341
1111.322	66.187474
1111.493	66.995414
1111.664	67.452700
1111.834	67.411993
1112.005	67.637538
1112.176	67.566983
1112.347	68.187874
1112.517	67.855147
1112.688	67.776620
1112.859	67.710606
1113.029	68.103223
1113.200	68.091084
1113.371	67.107061
1113.541	66.397414
1113.712	66.610658
1113.882	66.332866
1114.053	66.095480
1114.223	66.073428
1114.394	66.080175
1114.564	65.843312
1114.735	65.525137
1114.905	64.912574
1115.076	65.003612
1115.246	65.639982
1115.416	66.393167
1115.587	66.322238
1115.757	66.928736
1115.927	67.278046
1116.098	66.956465
1116.268	66.841949
1116.438	66.566160
1116.609	66.200794
1116.779	66.270128
1116.949	66.397193
1117.119	66.197539
1117.289	65.195064
1117.459	64.551177
1117.630	64.032768
1117.800	63.648544
1117.970	63.628193
1118.140	63.781849
1118.310	63.660542
1118.480	63.330740
1118.650	63.382715
1118.820	62.783292
1118.990	62.375581
1119.160	62.486389
1119.330	62.329078
1119.500	61.758086
1119.670	61.212254
1119.840	60.962976
1120.010	60.941880
1120.179	61.550026
1120.349	61.708690
1120.519	60.793281
1120.689	60.245041
1120.859	60.009232
1121.028	59.857663
1121.198	59.818108
1121.368	59.816942
1121.538	60.498700
1121.707	60.761208
1121.877	60.088076
1122.047	59.442878
1122.216	59.691299
1122.386	60.326251
1122.555	60.982953
1122.725	61.343020
1122.894	61.322152
1123.064	61.089353
1123.233	61.161518
1123.403	60.796896
1123.573	59.866075
1123.742	59.920089
1123.911	59.740367
1124.081	59.161897
1124.250	58.715353
1124.419	58.406224
1124.589	58.300566
1124.758	58.533035
1124.927	59.372425
1125.097	59.186235
1125.266	58.945197
1125.435	59.121743
1125.605	58.776556
1125.774	58.774210
1125.943	59.090920
1126.112	59.319319
1126.281	59.182688
1126.450	58.821683
1126.620	58.341126
1126.789	57.970442
1126.958	58.754171
1127.127	59.190587
1127.296	59.163370
1127.465	59.508761
1127.634	59.888692
1127.803	59.603962
1127.972	59.426227
1128.141	59.149688
1128.310	59.116696
1128.479	58.833130
1128.648	58.574916
1128.817	57.859567
1128.985	57.390458
1129.154	57.470164
1129.323	57.132092
1129.492	56.730071
1129.661	57.077909
1129.829	57.263188
1129.998	57.641749
1130.167	57.609753
1130.336	57.736295
1130.504	57.618672
1130.673	57.423824
1130.842	57.006429
1131.010	56.314854
1131.179	56.201449
1131.347	55.812085
1131.516	55.137330
1131.685	54.599370
1131.853	54.160158
1132.022	54.161729
1132.190	53.884166
1132.359	53.066322
1132.527	52.871557
1132.696	53.066248
1132.864	53.151655
1133.032	52.870184
1133.201	52.933743
1133.369	52.923395
1133.537	52.762666
1133.706	52.443045
1133.874	51.901873
1134.042	52.019479
1134.211	52.360120
1134.379	51.871231
1134.547	51.597162
1134.715	51.603855
1134.884	51.913087
1135.052	51.814708
1135.220	51.957107
1135.388	52.167484
1135.556	52.262595
1135.724	51.933303
1135.892	51.512413
1136.060	51.425497
1136.228	51.618479
1136.396	51.324972
1136.564	51.150447
1136.732	50.807875
1136.900	50.732779
1137.068	50.393045
1137.236	50.354306
1137.404	50.281580
1137.572	50.459373
1137.740	50.615304
1137.908	50.712375
1138.076	50.578968
1138.243	50.575378
1138.411	50.424118
1138.579	50.898817
1138.747	51.681231
1138.914	51.651571
1139.082	51.213144
1139.250	51.733747
1139.417	52.014847
1139.585	52.018440
1139.753	52.077028
1139.920	51.692006
1140.088	51.691317
1140.256	51.850821
1140.423	51.762422
1140.591	50.930851
1140.758	50.883436
1140.926	51.426404
1141.093	51.103934
1141.261	50.690880
1141.428	50.770110
1141.596	50.676800
1141.763	51.191558
1141.930	51.115788
1142.098	50.996495
1142.265	50.851113
1142.432	50.796238
1142.600	50.693493
1142.767	49.813087
1142.934	49.355722
1143.102	49.103864
1143.269	48.504578
1143.436	48.485506
1143.603	48.316050
1143.771	48.419649
1143.938	48.590779
1144.105	48.732845
1144.272	48.079254
1144.439	47.240461
1144.606	47.026454
1144.773	46.704264
1144.940	46.768517
1145.107	46.718976
1145.274	46.382651
1145.441	46.235748
1145.608	45.743477
1145.775	45.189199
1145.942	44.160528
1146.109	44.289245
1146.276	44.750176
1146.443	45.007389
1146.610	44.985968
1146.776	44.698159
1146.943	44.560015
1147.110	44.655577
1147.277	44.620627
1147.444	44.507681
1147.610	44.720002
1147.777	45.063779
1147.944	45.172038
1148.110	45.333051
1148.277	45.555534
1148.444	46.082933
1148.610	46.886634
1148.777	47.688943
1148.944	47.931572
1149.110	48.365318
1149.277	48.586392
1149.443	48.142492
1149.610	48.049447
1149.776	48.155771
1149.943	47.665422
1150.109	46.964816
1150.276	46.091316
1150.442	45.249581
1150.608	44.324181
1150.775	43.394867
1150.941	42.873679
1151.107	42.925491
1151.274	43.261840
1151.440	43.332586
1151.606	43.072751
1151.773	43.294907
1151.939	43.508252
1152.105	43.567689
1152.271	43.403173
1152.438	43.141448
1152.604	43.258202
1152.770	42.566880
1152.936	42.024869
1153.102	41.734088
1153.268	41.511378
1153.434	41.578103
1153.600	41.579110
1153.766	41.331652
1153.932	40.842839
1154.098	40.774317
1154.264	41.241350
1154.430	40.667384
1154.596	40.938398
1154.762	41.436385
1154.928	41.792100
1155.094	41.637154
1155.260	41.235077
1155.426	41.353123
1155.591	41.158271
1155.757	41.525019
1155.923	41.634901
1156.089	41.122546
1156.255	41.246923
1156.420	40.928946
1156.586	40.215055
1156.752	39.600494
1156.917	39.482278
1157.083	39.680701
1157.249	39.165486
1157.414	39.367793
1157.580	39.459150
1157.745	39.225171
1157.911	39.336559
1158.076	39.819290
1158.242	40.060348
1158.407	40.060267
1158.573	39.961988
1158.738	39.956907
1158.904	39.376539
1159.069	39.359766
1159.235	39.220749
1159.400	38.864327
1159.565	38.866922
1159.731	39.046440
1159.896	38.778444
1160.061	38.704310
1160.227	38.968167
1160.392	38.858789
1160.557	38.607912
1160.722	38.902894
1160.888	38.754239
1161.053	39.018252
1161.218	39.193213
1161.383	39.149518
1161.548	38.940239
1161.713	39.042722
1161.878	38.835185
1162.043	38.757726
1162.208	38.848794
1162.374	38.642396
1162.539	38.449285
1162.704	38.729068
1162.869	38.682540
1163.033	38.857746
1163.198	38.855458
1163.363	38.771164
1163.528	38.573087
1163.693	38.577238
1163.858	38.282944
1164.023	38.261775
1164.188	38.324337
1164.353	38.401452
1164.517	37.763727
1164.682	37.332405
1164.847	37.113667
1165.011	37.064613
1165.176	36.716143
1165.341	36.154569
1165.506	36.308396
1165.670	36.288097
1165.835	36.029439
1166.000	36.024377
1166.164	35.716346
1166.329	35.718042
1166.493	35.894487
1166.658	35.990911
1166.822	36.005590
1166.987	36.248488
1167.151	36.574897
1167.316	37.132186
1167.480	37.140599
1167.645	37.096333
1167.809	37.021553
1167.973	37.552166
1168.138	37.825100
1168.302	37.305956
1168.466	36.716047
1168.631	36.535083
1168.795	36.261639
1168.959	36.639061
1169.124	36.026331
1169.288	36.062732
1169.452	36.378132
1169.616	36.744104
1169.780	36.487460
1169.944	36.446928
1170.109	36.675521
1170.273	36.675995
1170.437	36.717782
1170.601	36.555727
1170.765	35.992345
1170.929	35.655067
1171.093	35.378491
1171.257	34.845397
1171.421	34.126851
1171.585	34.044492
1171.749	34.174290
1171.913	34.533384
1172.077	34.528579
1172.240	34.171710
1172.404	34.521123
1172.568	34.974426
1172.732	35.150458
1172.896	35.500117
1173.060	35.801665
1173.223	36.174652
1173.387	36.090927
1173.551	35.828200
1173.715	35.714996
1173.878	35.996096
1174.042	36.633580
1174.206	36.755819
1174.369	36.474687
1174.533	36.768137
1174.696	36.842959
1174.860	36.764122
1175.023	36.649900
1175.187	36.237497
1175.351	35.968138
1175.514	36.016144
1175.677	35.892301
1175.841	35.502837
1176.004	35.475115
1176.168	35.914618
1176.331	36.116848
1176.495	35.586244
1176.658	35.497130
1176.821	35.372791
1176.985	35.188754
1177.148	35.224468
1177.311	35.037286
1177.474	35.045659
1177.638	34.983291
1177.801	34.764468
1177.964	34.549001
1178.127	34.009636
1178.291	33.895643
1178.454	33.898920
1178.617	33.868650
1178.780	34.174086
1178.943	34.298850
1179.106	33.980272
1179.269	33.886204
1179.432	34.010441
1179.595	34.154770
1179.758	33.838108
1179.921	33.878598
1180.084	34.186213
1180.247	34.232411
1180.410	34.192913
1180.573	34.439862
1180.736	34.495805
1180.899	34.796134
1181.061	35.021705
1181.224	35.015089
1181.387	34.878228
1181.550	35.261881
1181.713	35.457938
1181.875	35.299165
1182.038	35.092948
1182.201	34.877155
1182.363	34.861316
1182.526	35.050902
1182.689	34.889603
1182.851	34.376401
1183.014	34.244693
1183.177	34.248006
1183.339	33.631608
1183.502	32.770204
1183.664	32.532498
1183.827	32.570729
1183.989	32.500619
1184.152	32.159242
1184.314	31.995282
1184.477	32.332315
1184.639	33.223183
1184.801	33.403460
1184.964	33.575724
1185.126	33.990953
1185.288	34.403146
1185.451	34.448479
1185.613	34.422164
1185.775	34.873321
1185.938	34.939407
1186.100	34.559561
1186.262	34.412707
1186.424	33.959251
1186.586	34.000830
1186.749	33.721311
1186.911	33.240880
1187.073	33.321311
1187.235	33.890542
1187.397	33.936931
1187.559	33.952314
1187.721	34.288098
1187.883	34.720858
1188.045	34.370050
1188.207	34.166255
1188.369	34.283711
1188.531	34.334961
1188.693	34.746841
1188.855	34.687968
1189.017	34.552709
1189.179	34.811553
1189.341	34.773628
1189.502	35.020199
1189.664	34.757146
1189.826	35.214614
1189.988	35.578591
1190.150	35.641068
1190.311	35.839256
1190.473	35.651025
1190.635	35.888205
1190.796	35.410320
1190.958	35.245486
1191.120	35.460449
1191.281	35.345285
1191.443	35.504070
1191.604	35.152985
1191.766	34.928804
1191.928	34.766505
1192.089	34.495251
1192.251	34.883931
1192.412	34.981852
1192.574	35.451075
1192.735	35.831972
1192.896	36.064412
1193.058	36.123930
1193.219	36.188721
1193.381	36.477429
1193.542	36.487280
1193.703	36.563553
1193.865	36.906377
1194.026	36.760187
1194.187	36.724991
1194.349	36.815195
1194.510	36.488787
1194.671	35.960709
1194.832	35.132989
1194.993	34.678217
1195.155	34.285196
1195.316	34.406398
1195.477	34.340081
1195.638	33.798313
1195.799	33.542052
1195.960	33.582326
1196.121	33.553701
1196.282	33.649968
1196.443	33.782787
1196.604	34.547101
1196.765	35.098005
1196.926	35.311672
1197.087	35.756825
1197.248	35.643925
1197.409	35.958356
1197.570	36.077783
1197.730	36.194080
1197.891	36.312957
1198.052	36.462025
1198.213	36.972963
1198.374	37.050828
1198.534	37.131192
1198.695	37.514661
1198.856	37.255793
1199.016	37.469763
1199.177	37.902686
1199.338	38.199722
1199.498	38.351156
1199.659	38.386515
1199.820	38.722177
1199.980	38.698088
1200.141	38.810343
1200.301	39.516451
1200.462	39.587380
1200.622	39.554944
1200.783	39.767052
1200.943	39.933428
1201.104	40.195073
1201.264	40.175498
1201.424	40.434269
1201.585	40.517115
1201.745	40.530355
1201.906	40.685195
1202.066	40.459382
1202.226	40.385373
1202.386	40.458578
1202.547	39.928529
1202.707	39.264691
1202.867	38.961091
1203.027	39.091196
1203.188	39.217263
1203.348	38.878356
1203.508	38.551336
1203.668	38.410096
1203.828	38.280663
1203.988	38.425467
1204.148	38.541270
1204.308	39.111548
1204.468	39.613119
1204.628	39.701864
1204.788	39.457398
1204.948	38.752747
1205.108	39.320619
1205.268	40.303044
1205.428	40.472777
1205.588	40.187114
1205.748	39.598255
1205.908	39.765752
1206.068	39.939860
1206.228	40.021904
1206.387	39.891039
1206.547	40.088854
1206.707	40.713157
1206.867	40.434419
1207.026	40.098911
1207.186	40.111311
1207.346	40.038238
1207.505	40.537773
1207.665	40.356961
1207.825	39.828482
1207.984	39.817376
1208.144	40.191580
1208.303	40.334628
1208.463	40.492544
1208.622	40.561460
1208.782	40.485195
1208.941	40.456127
1209.101	40.416152
1209.260	39.966667
1209.420	40.027758
1209.579	40.460207
1209.739	40.419259
1209.898	40.124745
1210.057	40.058675
1210.217	39.957327
1210.376	39.649584
1210.535	39.281607
1210.694	39.654772
1210.854	40.327901
1211.013	40.803267
1211.172	40.486760
1211.331	40.701837
1211.490	40.813006
1211.650	41.422475
1211.809	41.361520
1211.968	41.028385
1212.127	41.078497
1212.286	41.215503
1212.445	41.381829
1212.604	41.599279
1212.763	42.175145
1212.922	42.566158
1213.081	42.341792
1213.240	42.444081
1213.399	42.178373
1213.558	42.149008
1213.717	42.639644
1213.876	42.888317
1214.035	43.152411
1214.194	42.721574
1214.352	42.449105
1214.511	42.096363
1214.670	42.599191
1214.829	42.789907
1214.988	42.795425
1215.146	43.082647
1215.305	43.378822
1215.464	43.913154
1215.622	44.064297
1215.781	43.339123
1215.940	42.994706
1216.098	42.900748
1216.257	42.900665
1216.415	42.790498
1216.574	43.069125
1216.732	43.157046
1216.891	42.866360
1217.049	42.604656
1217.208	42.046498
1217.366	42.444868
1217.525	43.548064
1217.683	44.006134
1217.842	44.328713
1218.000	44.754095
1218.158	44.883777
1218.317	44.747541
1218.475	45.212934
1218.633	45.875880
1218.792	46.373390
1218.950	46.421506
1219.108	46.058078
1219.266	45.860273
1219.425	45.837927
1219.583	45.623881
1219.741	45.375587
1219.899	45.273086
1220.057	45.258181
1220.215	44.958101
1220.373	44.969777
1220.531	44.862061
1220.689	44.991313
1220.847	45.038117
1221.005	44.741872
1221.163	44.728124
1221.322	44.699963
1221.479	44.865965
1221.637	45.123038
1221.795	45.260927
1221.953	45.205469
1222.111	44.799697
1222.269	44.873850
1222.427	44.912085
1222.584	45.194007
1222.742	45.166453
1222.900	45.471839
1223.058	46.066597
1223.216	46.342330
1223.373	46.649056
1223.531	46.960283
1223.689	47.487973
1223.846	47.848638
1224.004	47.812146
1224.162	47.846701
1224.319	47.354917
1224.477	47.614618
1224.634	47.393452
1224.792	47.159013
1224.949	46.924938
1225.107	46.561662
1225.264	46.501770
1225.422	46.029169
1225.579	45.905331
1225.737	46.194524
1225.894	46.473393
1226.052	47.235631
1226.209	47.616854
1226.366	48.138572
1226.523	48.464194
1226.681	48.970546
1226.838	48.803581
1226.995	48.612620
1227.153	48.560270
1227.310	48.952265
1227.467	49.054731
1227.624	49.058971
1227.781	48.949536
1227.938	48.836692
1228.096	49.259108
1228.253	49.599246
1228.410	49.241979
1228.567	49.741573
1228.724	50.162280
1228.881	50.771784
1229.038	50.596887
1229.195	50.371186
1229.352	50.535893
1229.509	50.175695
1229.666	50.138914
1229.823	50.043130
1229.980	49.690998
1230.136	49.653907
1230.293	49.650865
1230.450	50.095190
1230.607	50.371251
1230.764	50.366221
1230.921	50.609625
1231.077	49.996264
1231.234	49.971191
1231.391	50.349914
1231.547	50.328902
1231.704	50.331387
1231.861	50.411921
1232.018	50.475741
1232.174	50.043542
1232.331	49.890636
1232.487	50.205148
1232.644	50.311103
1232.800	50.771534
1232.957	51.414662
1233.113	51.239700
1233.270	51.016062
1233.426	51.197012
1233.583	51.800524
1233.739	52.130038
1233.896	52.155805
1234.052	52.073922
1234.208	52.184345
1234.365	52.619782
1234.521	53.287574
1234.677	53.438071
1234.834	54.023641
1234.990	54.302622
1235.146	53.977734
1235.302	53.434566
1235.459	53.344590
1235.615	53.522709
1235.771	53.282326
1235.927	52.979347
1236.083	52.637607
1236.239	52.279124
1236.396	51.870483
1236.552	51.506328
1236.708	50.919981
1236.864	50.840768
1237.020	50.795795
1237.176	50.395483
1237.332	50.338465
1237.488	50.639670
1237.644	50.642296
1237.799	51.011106
1237.955	51.026388
1238.111	51.271627
1238.267	51.695019
1238.423	52.418455
1238.579	52.854838
1238.734	52.942721
1238.890	53.211358
1239.046	53.484358
1239.202	53.857282
1239.357	54.147278
1239.513	53.754449
1239.669	53.703004
1239.824	54.276444
1239.980	54.293357
1240.136	53.810206
1240.291	53.626166
1240.447	53.701715
1240.603	54.201729
1240.758	54.659682
1240.914	54.495900
1241.069	54.469820
1241.225	54.904226
1241.380	55.181184
1241.535	55.162367
1241.691	55.025025
1241.846	54.902042
1242.002	55.012335
1242.157	55.504312
1242.313	54.731665
1242.468	53.862081
1242.623	53.754846
1242.778	53.744283
1242.934	53.310876
1243.089	52.875087
1243.244	51.846665
1243.399	50.947996
1243.554	51.000928
1243.710	51.330765
1243.865	50.637748
1244.020	50.568066
1244.175	50.665282
1244.330	50.724180
1244.485	50.972096
1244.640	51.295255
1244.795	52.517963
1244.950	53.524580
1245.105	54.519407
1245.260	55.308558
1245.415	55.263944
1245.570	55.645673
1245.725	55.913034
1245.880	56.466337
1246.035	56.934187
1246.190	56.868772
1246.345	57.072132
1246.499	56.795286
1246.654	56.517194
1246.809	56.459275
1246.964	56.579323
1247.118	56.737273
1247.273	57.355962
1247.428	58.046321
1247.583	58.094051
1247.737	58.429324
1247.892	58.877931
1248.047	59.217447
1248.201	59.104610
1248.356	59.853671
1248.510	60.440687
1248.665	60.564539
1248.819	60.410571
1248.974	60.166800
1249.128	59.653482
1249.283	59.828551
1249.437	59.781324
1249.592	59.795571
1249.746	59.503542
1249.900	58.921507
1250.055	58.559917
1250.209	58.385211
1250.363	58.228344
1250.518	58.279324
1250.672	58.079853
1250.826	58.074861
1250.981	57.758881
1251.135	57.226829
1251.289	57.151385
1251.443	57.027567
1251.597	56.886699
1251.751	56.466240
1251.906	56.616305
1252.060	56.850772
1252.214	56.784936
1252.368	57.268485
1252.522	57.570461
1252.676	57.615524
1252.830	57.630646
1252.984	57.123214
1253.138	56.588789
1253.292	56.689571
1253.446	57.592401
1253.600	57.474578
1253.754	57.513500
1253.907	57.395495
1254.061	57.066838
1254.215	56.981806
1254.369	56.900399
1254.523	57.283802
1254.677	58.038559
1254.830	58.425732
1254.984	58.759678
1255.138	58.144074
1255.292	57.443643
1255.445	57.023980
1255.599	57.371646
1255.752	57.344564
1255.906	57.629227
1256.060	58.053335
1256.213	57.907186
1256.367	57.486852
1256.520	58.177966
1256.674	58.349377
1256.827	57.951952
1256.981	58.205332
1257.134	58.456444
1257.288	59.321431
1257.441	60.186582
1257.594	59.766122
1257.748	59.869182
1257.901	60.806399
1258.055	61.572342
1258.208	61.527357
1258.361	61.391035
1258.515	61.684020
1258.668	61.454485
1258.821	61.855282
1258.974	62.507311
1259.127	62.390940
1259.281	62.740890
1259.434	62.631000
1259.587	62.014086
1259.740	61.687384
1259.893	61.476252
1260.046	62.243822
1260.199	62.490825
1260.352	63.928895
1260.505	64.420907
1260.658	62.990807
1260.811	62.202154
1260.964	62.521669
1261.117	62.351728
1261.270	62.035503
1261.423	61.126038
1261.576	61.342221
1261.729	61.606581
1261.882	62.177547
1262.035	61.374121
1262.188	59.551015
1262.340	59.722108
1262.493	61.243328
1262.646	61.688591
1262.798	62.029958
1262.951	62.360162
1263.104	63.692260
1263.257	64.091301
1263.409	63.604242
1263.562	64.016174
1263.714	64.728811
1263.867	66.405147
1264.020	67.163679
1264.172	66.869568
1264.325	66.626670
1264.477	66.009859
1264.630	65.157360
1264.782	65.402667
1264.935	65.493723
1265.087	64.827560
1265.240	63.818814
1265.392	63.375178
1265.544	63.177300
1265.697	62.112948
1265.849	61.254967
1266.001	59.866847
1266.154	59.552577
1266.306	59.907493
1266.458	59.688523
1266.610	60.001662
1266.762	60.656582
1266.915	60.392542
1267.067	60.123012
1267.219	59.577795
1267.371	60.052249
1267.523	59.790434
1267.675	61.430473
1267.828	62.000313
1267.979	62.591251
1268.132	61.850319
1268.284	61.008446
1268.436	60.742928
1268.588	61.157789
1268.740	61.323169
1268.891	61.212407
1269.043	60.151634
1269.195	59.785238
1269.347	58.999535
1269.499	60.044724
1269.651	59.428623
1269.803	60.218983
1269.955	60.736909
1270.106	61.233237
1270.258	60.813238
1270.410	60.721910
1270.562	61.423486
1270.713	62.855100
1270.865	64.079974
1271.017	65.179079
1271.168	65.042597
1271.320	65.962874
1271.471	66.027052
1271.623	65.708936
1271.775	65.735619
1271.926	66.275493
1272.078	66.165077
1272.229	65.645717
1272.381	66.585360
1272.532	67.367766
1272.684	66.634296
1272.835	66.318868
1272.986	66.710423
1273.138	66.566629
1273.289	66.805443
1273.440	67.907360
1273.592	68.408247
1273.743	68.813912
1273.894	69.681564
1274.046	69.150401
1274.197	68.780379
1274.348	69.417679
1274.500	69.544873
1274.651	69.322400
1274.802	69.712318
>>>>>>>>>> END of Data <<<<<<<<<<
