Date	2025年07月03日木曜日 10時02分29秒
Spectrometers	SR401765
ダーク	使用
リファレンス	使用
積分時間[msec]	300
平均回数	1
ｽﾑｰｼﾞﾝｸﾞ	5
Electrical Dark	USE
ピクセル数	3648
計測モード	反射率
保存開始波長[nm]	598.495
保存終了波長[nm]	1274.802
保存ﾋﾟｯﾁ波長[nm]	全波長

>>>>>>>>>> Data Start <<<<<<<<<<<<
598.495	0.000000
598.713	0.000000
598.931	0.000000
599.148	0.000000
599.366	-68.055597
599.584	32.488047
599.802	57.151952
600.020	0.000000
600.238	0.000000
600.455	0.000000
600.673	0.000000
600.891	64.799826
601.109	56.086509
601.326	55.646427
601.544	55.526643
601.762	55.740687
601.979	56.415183
602.197	56.896742
602.415	57.133210
602.632	57.172314
602.850	57.108519
603.067	56.861294
603.285	56.901117
603.502	57.219600
603.720	57.357277
603.938	57.437119
604.155	57.379605
604.372	57.275899
604.590	57.276496
604.807	57.278481
605.025	57.450926
605.242	57.715208
605.460	58.106840
605.677	58.325881
605.894	58.506954
606.112	58.787321
606.329	58.943063
606.546	58.923891
606.764	58.840627
606.981	58.832848
607.198	58.693469
607.415	58.432663
607.633	58.296930
607.850	58.446657
608.067	58.620722
608.284	58.897384
608.501	59.138834
608.718	59.502759
608.935	60.158844
609.153	60.845153
609.370	61.283123
609.587	61.776538
609.804	62.223220
610.021	62.473016
610.238	62.318322
610.455	62.270487
610.672	62.062278
610.889	61.960132
611.106	62.065236
611.323	61.925281
611.540	61.806926
611.756	61.818375
611.973	61.779189
612.190	61.931539
612.407	62.157474
612.624	62.554276
612.841	62.995918
613.057	63.453813
613.274	63.718531
613.491	63.794018
613.708	64.014738
613.925	63.998778
614.141	64.255434
614.358	64.867216
614.575	65.176197
614.791	65.319752
615.008	65.365311
615.225	65.330975
615.441	65.512848
615.658	65.712637
615.874	65.887639
616.091	66.259580
616.307	66.678735
616.524	66.654864
616.740	66.288736
616.957	66.169491
617.173	66.374645
617.390	66.878714
617.606	67.335535
617.823	67.553889
618.039	67.791443
618.256	68.124576
618.472	68.186624
618.688	68.334698
618.905	68.700958
619.121	69.267528
619.337	69.821610
619.554	70.169827
619.770	70.289778
619.986	70.431971
620.202	70.274290
620.419	70.078820
620.635	70.065889
620.851	70.145763
621.067	70.060751
621.283	69.732926
621.499	69.723843
621.716	69.827921
621.932	69.879416
622.148	69.750322
622.364	69.726157
622.580	69.981074
622.796	70.525102
623.012	70.921188
623.228	71.145370
623.444	71.474823
623.660	71.873817
623.876	71.910368
624.092	71.827383
624.308	71.699116
624.524	71.815125
624.740	71.865239
624.955	71.781828
625.171	71.515801
625.387	71.416388
625.603	71.687891
625.819	71.954797
626.034	71.958012
626.250	71.861892
626.466	72.047781
626.682	72.528415
626.897	72.858959
627.113	73.328354
627.329	73.985739
627.544	74.744460
627.760	75.377110
627.976	75.646232
628.191	75.596637
628.407	75.854313
628.623	76.362718
628.838	76.654861
629.054	76.634413
629.269	76.518221
629.485	76.395399
629.700	76.336154
629.916	76.002370
630.131	75.570745
630.347	75.369763
630.562	75.378032
630.777	75.296015
630.993	75.079133
631.208	74.883511
631.424	74.892722
631.639	74.849838
631.854	74.654440
632.070	74.475522
632.285	74.628600
632.500	74.863685
632.715	74.954208
632.931	75.141433
633.146	75.170304
633.361	75.073556
633.576	75.153030
633.791	75.217217
634.007	75.637167
634.222	76.253973
634.437	76.743006
634.652	76.985278
634.867	77.109774
635.082	77.457428
635.297	77.708478
635.512	77.960997
635.727	78.373791
635.942	78.394609
636.157	78.307453
636.372	78.220002
636.587	78.092591
636.802	78.109234
637.017	78.175846
637.232	78.113988
637.447	78.110621
637.662	78.361167
637.876	78.518326
638.091	78.614503
638.306	79.127420
638.521	79.644406
638.736	79.863836
638.951	79.917351
639.165	79.751986
639.380	79.494540
639.595	79.401997
639.809	79.200530
640.024	79.076633
640.239	79.358104
640.453	79.460301
640.668	79.337255
640.883	79.284111
641.097	79.202248
641.312	79.320104
641.526	79.335380
641.741	79.282989
641.955	79.250467
642.170	79.256773
642.384	78.984924
642.599	78.832911
642.813	78.695897
643.028	78.480569
643.242	78.350367
643.457	78.602729
643.671	78.747243
643.885	78.970315
644.100	79.543172
644.314	80.302324
644.528	80.826916
644.743	81.150718
644.957	81.270556
645.171	81.897349
645.386	82.690283
645.600	83.033323
645.814	82.909940
646.028	82.867429
646.242	83.216335
646.457	83.177204
646.671	82.849112
646.885	82.748771
647.099	82.682346
647.313	82.625465
647.527	82.623800
647.741	82.453238
647.955	82.468832
648.169	82.586534
648.383	82.341795
648.597	81.826942
648.811	81.547538
649.025	81.359297
649.239	81.206741
649.453	81.353866
649.667	81.464030
649.881	81.305098
650.095	81.294389
650.309	81.278579
650.523	81.240647
650.737	81.500571
650.950	82.102159
651.164	82.796252
651.378	83.314713
651.592	83.542877
651.805	83.524622
652.019	83.519495
652.233	83.296950
652.447	82.994251
652.660	82.822695
652.874	82.706031
653.088	82.470940
653.301	81.902497
653.515	81.511488
653.728	81.513040
653.942	81.588697
654.156	81.833704
654.369	82.136333
654.583	82.586901
654.796	83.199721
655.010	83.793916
655.223	84.319275
655.437	84.778909
655.650	85.196780
655.863	85.159940
656.077	84.998724
656.290	85.068887
656.504	85.253378
656.717	85.460063
656.930	85.594750
657.144	85.564647
657.357	85.579907
657.570	85.734245
657.783	85.817840
657.997	85.984593
658.210	86.153383
658.423	86.166186
658.636	85.930817
658.849	85.465211
659.063	85.069866
659.276	84.910037
659.489	85.058355
659.702	84.982457
659.915	84.579518
660.128	84.240480
660.341	83.953835
660.554	83.936971
660.767	83.886077
660.980	83.887371
661.193	83.940004
661.406	84.000084
661.619	83.871951
661.832	83.327933
662.045	82.675590
662.258	82.390614
662.471	82.427896
662.684	82.535730
662.897	82.579926
663.110	82.492294
663.322	82.425830
663.535	82.680196
663.748	82.982358
663.961	83.095246
664.174	83.124522
664.386	83.392395
664.599	83.893371
664.812	84.372018
665.024	84.539647
665.237	84.392064
665.450	84.636774
665.662	85.087595
665.875	85.193546
666.088	85.054637
666.300	85.165419
666.513	85.631516
666.725	86.058274
666.938	86.090710
667.150	85.843439
667.363	85.745287
667.575	85.893230
667.788	85.867678
668.000	85.529263
668.213	85.377866
668.425	85.463933
668.638	85.403990
668.850	85.147215
669.062	84.997776
669.275	85.171126
669.487	85.362802
669.699	85.537202
669.912	85.802563
670.124	85.979447
670.336	86.005729
670.548	85.864397
670.761	85.781639
670.973	85.747005
671.185	85.770984
671.397	85.752418
671.609	85.356848
671.822	85.293136
672.034	85.299729
672.246	85.325778
672.458	85.423078
672.670	85.446180
672.882	85.462214
673.094	85.297119
673.306	85.260068
673.518	85.468415
673.730	85.755921
673.942	86.213418
674.154	86.272184
674.366	86.002113
674.578	85.555489
674.790	85.344908
675.002	85.461097
675.214	85.340644
675.425	85.253291
675.637	85.233429
675.849	85.107552
676.061	85.061006
676.273	84.817951
676.484	84.693447
676.696	84.935573
676.908	85.333886
677.120	85.491672
677.331	85.549307
677.543	85.935340
677.755	86.610362
677.966	87.149575
678.178	87.221470
678.389	86.993182
678.601	86.894036
678.813	86.800778
679.024	86.609905
679.236	86.320054
679.447	86.080950
679.659	86.017426
679.870	86.058652
680.082	85.663873
680.293	85.307628
680.505	85.398135
680.716	85.520024
680.927	85.710439
681.139	86.020554
681.350	86.291749
681.562	86.365512
681.773	86.433401
681.984	86.350525
682.196	86.077314
682.407	85.862336
682.618	85.549269
682.829	85.121101
683.041	84.763534
683.252	84.529982
683.463	84.442333
683.674	84.344655
683.885	84.334323
684.097	84.162481
684.308	83.932750
684.519	83.908385
684.730	83.986794
684.941	84.287358
685.152	84.581936
685.363	84.851779
685.574	84.962449
685.785	84.635282
685.996	84.497414
686.207	84.723622
686.418	85.004699
686.629	85.269118
686.840	85.437748
687.051	85.437090
687.262	85.156582
687.473	84.636154
687.684	84.321357
687.894	84.145028
688.105	84.001784
688.316	83.724710
688.527	83.314285
688.738	83.021465
688.948	82.781871
689.159	82.446020
689.370	82.247846
689.580	81.996294
689.791	82.097403
690.002	82.132154
690.212	81.939666
690.423	82.019837
690.634	82.299611
690.844	82.559054
691.055	82.779103
691.266	83.157495
691.476	83.764632
691.687	84.265877
691.897	84.457406
692.108	84.507238
692.318	84.527796
692.529	84.617688
692.739	84.815330
692.949	84.856806
693.160	84.730074
693.370	84.515000
693.581	84.411052
693.791	84.120249
694.001	83.757414
694.212	83.704905
694.422	83.677587
694.632	83.865898
694.843	83.959038
695.053	83.824210
695.263	83.858059
695.473	83.993056
695.683	84.375200
695.894	84.505710
696.104	84.735087
696.314	85.143701
696.524	85.449043
696.734	85.384383
696.944	85.075624
697.154	84.890247
697.365	84.607550
697.575	84.400870
697.785	84.259860
697.995	83.999385
698.205	83.936064
698.415	83.859862
698.625	83.869506
698.834	84.176590
699.044	84.812860
699.254	85.382601
699.464	86.070146
699.674	86.818305
699.884	86.852842
700.094	86.634643
700.304	86.352543
700.513	85.844839
700.723	85.141567
700.933	84.358825
701.143	83.625917
701.353	82.906989
701.562	82.154258
701.772	81.319633
701.982	80.714084
702.191	80.454090
702.401	80.283607
702.611	80.307288
702.820	80.346964
703.030	80.494616
703.239	80.552488
703.449	80.527397
703.659	80.716996
703.868	81.304925
704.078	81.971089
704.287	82.380832
704.497	82.712832
704.706	82.815353
704.916	82.593411
705.125	82.453860
705.334	82.563083
705.544	82.857491
705.753	83.097388
705.962	82.982723
706.172	82.370162
706.381	81.830976
706.590	81.278161
706.800	80.818219
707.009	80.822154
707.218	81.115911
707.428	81.442119
707.637	81.200923
707.846	80.979154
708.055	81.212186
708.264	81.680760
708.474	82.336917
708.683	82.669859
708.892	82.825438
709.101	82.890101
709.310	82.887097
709.519	82.857500
709.728	82.809164
709.937	83.174982
710.146	83.320774
710.355	82.726715
710.564	81.891680
710.773	81.107699
710.982	80.508788
711.191	80.078230
711.400	79.633761
711.609	79.339332
711.818	79.145020
712.027	78.912934
712.235	78.627846
712.444	78.453172
712.653	78.644669
712.862	78.975438
713.071	79.125004
713.279	79.232320
713.488	79.557512
713.697	80.147325
713.906	80.450870
714.114	80.404886
714.323	80.027839
714.532	79.649542
714.740	79.389966
714.949	79.133671
715.157	78.841724
715.366	78.575615
715.575	78.390393
715.783	78.110701
715.992	77.567896
716.200	76.894273
716.409	76.429335
716.617	76.566383
716.826	76.773209
717.034	76.761598
717.242	76.801373
717.451	77.117703
717.659	77.733226
717.868	78.271696
718.076	78.457678
718.284	78.576229
718.493	78.847487
718.701	78.868867
718.909	78.629401
719.118	78.483983
719.326	78.289842
719.534	78.054956
719.742	77.752182
719.951	77.282541
720.159	76.883672
720.367	76.976181
720.575	77.252836
720.783	77.407130
720.991	77.693548
721.199	77.945299
721.408	77.966112
721.616	78.093045
721.824	78.050364
722.032	77.800968
722.240	77.585208
722.448	77.406615
722.656	77.101391
722.864	76.617412
723.072	75.989220
723.280	75.248574
723.487	74.368966
723.695	73.745932
723.903	73.257386
724.111	72.873612
724.319	72.533491
724.527	72.053857
724.735	71.706531
724.942	71.386223
725.150	71.026704
725.358	70.941150
725.566	71.111971
725.773	71.419959
725.981	71.567214
726.189	71.557072
726.396	71.447874
726.604	71.313807
726.812	71.267952
727.019	70.933810
727.227	70.427083
727.435	70.119786
727.642	70.003984
727.850	69.811244
728.057	69.430357
728.265	69.028968
728.472	68.977828
728.680	69.109986
728.887	69.219310
729.095	69.288705
729.302	69.393416
729.509	69.502672
729.717	69.536770
729.924	69.381084
730.132	69.181864
730.339	69.379520
730.546	69.702985
730.753	69.635352
730.961	69.419783
731.168	69.347466
731.375	69.397619
731.583	69.498584
731.790	69.805840
731.997	70.441030
732.204	70.954285
732.411	71.087432
732.618	70.814182
732.826	70.412473
733.033	70.323191
733.240	70.458120
733.447	70.414293
733.654	70.080057
733.861	69.637856
734.068	68.989242
734.275	68.021479
734.482	67.196255
734.689	66.865204
734.896	66.787254
735.103	66.639653
735.310	66.201020
735.517	65.718183
735.724	65.429971
735.931	65.526028
736.137	65.629594
736.344	65.657150
736.551	65.701083
736.758	65.681994
736.965	65.623701
737.171	65.642565
737.378	65.711234
737.585	65.791000
737.792	65.736352
737.998	65.700036
738.205	65.534400
738.412	65.119227
738.618	64.803585
738.825	64.632633
739.032	64.627890
739.238	64.579192
739.445	64.287250
739.651	63.778558
739.858	63.146227
740.064	62.595970
740.271	62.003493
740.477	61.470087
740.684	61.307324
740.890	61.067877
741.097	60.510265
741.303	59.661611
741.510	59.045716
741.716	58.669365
741.922	58.317068
742.129	58.012123
742.335	57.657327
742.541	57.139106
742.748	56.626120
742.954	56.216782
743.160	55.857008
743.366	55.818261
743.573	55.984677
743.779	55.951617
743.985	55.722081
744.191	55.529518
744.397	55.538425
744.604	55.470618
744.810	55.510269
745.016	55.712011
745.222	55.830310
745.428	55.819242
745.634	55.607087
745.840	55.428607
746.046	55.183364
746.252	54.970097
746.458	54.739082
746.664	54.439490
746.870	54.270186
747.076	53.885590
747.282	53.168841
747.488	52.566964
747.694	52.345663
747.900	52.305991
748.105	52.206838
748.311	52.081743
748.517	51.855953
748.723	51.670257
748.929	51.267377
749.134	50.630385
749.340	50.079672
749.546	49.545110
749.752	48.959483
749.957	48.372866
750.163	47.806770
750.369	47.156690
750.574	46.514362
750.780	45.908449
750.985	45.426150
751.191	45.166411
751.397	45.105947
751.602	45.066282
751.808	45.073129
752.013	45.052470
752.219	44.922675
752.424	44.597374
752.630	44.178422
752.835	43.785979
753.041	43.545890
753.246	43.241690
753.451	42.812170
753.657	42.352289
753.862	42.139663
754.067	42.031460
754.273	41.722020
754.478	41.256473
754.683	40.905132
754.889	40.643555
755.094	40.359936
755.299	40.014616
755.504	39.635643
755.710	39.268161
755.915	38.948860
756.120	38.435326
756.325	37.938254
756.530	37.526468
756.735	37.041703
756.940	36.565117
757.146	36.228454
757.351	36.007342
757.556	35.904462
757.761	35.897761
757.966	35.936598
758.171	35.863349
758.376	35.612533
758.581	35.174500
758.786	34.896437
758.990	34.817442
759.195	34.605027
759.400	34.256066
759.605	33.844003
759.810	33.239332
760.015	32.661961
760.220	32.143279
760.424	31.792973
760.629	31.586687
760.834	31.369177
761.039	31.099020
761.244	30.807807
761.448	30.563840
761.653	30.325366
761.858	29.979697
762.062	29.630316
762.267	29.295012
762.472	28.942922
762.676	28.641781
762.881	28.407024
763.085	28.125689
763.290	27.878570
763.494	27.539398
763.699	27.172166
763.903	26.864520
764.108	26.556930
764.312	26.240475
764.517	25.879874
764.721	25.620623
764.926	25.221720
765.130	24.783509
765.335	24.493517
765.539	24.038053
765.743	23.698860
765.948	23.431314
766.152	23.166542
766.356	22.995541
766.560	22.909141
766.765	22.967382
766.969	22.934509
767.173	22.916433
767.377	22.914504
767.582	22.955429
767.786	22.942098
767.990	22.866859
768.194	22.767499
768.398	22.673310
768.602	22.558451
768.806	22.494958
769.010	22.300805
769.215	22.086166
769.419	21.985803
769.623	21.884189
769.827	21.683107
770.031	21.587234
770.234	21.463924
770.438	21.344765
770.642	21.219537
770.846	21.151173
771.050	20.987330
771.254	20.942183
771.458	20.990137
771.662	20.874165
771.866	20.788247
772.069	20.747591
772.273	20.803624
772.477	20.836168
772.681	20.847724
772.885	20.874083
773.088	20.789829
773.292	20.829433
773.496	20.796106
773.699	20.675408
773.903	20.665895
774.107	20.652293
774.310	20.691846
774.514	20.685678
774.717	20.754136
774.921	20.844218
775.124	20.939129
775.328	21.187318
775.531	21.395871
775.735	21.568016
775.938	21.686759
776.142	21.708996
776.345	21.873030
776.549	22.025371
776.752	22.025329
776.956	22.052885
777.159	22.132579
777.362	22.099376
777.566	22.011418
777.769	21.948283
777.972	21.920490
778.176	21.917154
778.379	21.910201
778.582	21.839902
778.785	21.848991
778.989	22.114710
779.192	22.392643
779.395	22.704421
779.598	23.000673
779.801	23.248459
780.004	23.417644
780.207	23.502472
780.411	23.684486
780.614	24.060463
780.817	24.333147
781.020	24.486481
781.223	24.508035
781.426	24.568092
781.629	24.559087
781.832	24.639950
782.035	24.658484
782.238	24.673258
782.440	24.854004
782.643	25.121906
782.846	25.288070
783.049	25.449103
783.252	25.532497
783.455	25.696736
783.658	25.769523
783.860	25.847186
784.063	26.104297
784.266	26.653220
784.469	27.177710
784.671	27.635765
784.874	28.075844
785.077	28.455041
785.279	28.944565
785.482	29.592196
785.685	30.282274
785.887	30.973603
786.090	31.529375
786.293	31.926850
786.495	32.179050
786.698	32.341677
786.900	32.459337
787.103	32.464255
787.305	32.515528
787.508	32.592214
787.710	32.550869
787.913	32.325014
788.115	32.202103
788.317	32.237278
788.520	32.440432
788.722	32.741323
788.924	33.102611
789.127	33.600707
789.329	34.141125
789.531	34.540315
789.734	34.821851
789.936	35.150750
790.138	35.425193
790.340	35.572672
790.543	35.768790
790.745	35.829632
790.947	35.851219
791.149	35.948745
791.351	35.857566
791.553	35.664218
791.756	35.633244
791.958	35.677337
792.160	35.755535
792.362	35.907138
792.564	36.136374
792.766	36.370769
792.968	36.636368
793.170	36.831400
793.372	37.149295
793.574	37.511342
793.776	37.844721
793.978	38.082946
794.180	38.423688
794.381	38.820071
794.583	39.355462
794.785	40.030892
794.987	40.597352
795.189	41.007351
795.391	41.445024
795.592	41.854594
795.794	42.255268
795.996	42.827938
796.198	43.457792
796.399	43.816551
796.601	44.093746
796.803	44.489570
797.004	44.810041
797.206	45.062393
797.407	45.181648
797.609	45.180084
797.811	45.217256
798.012	45.311120
798.214	45.237177
798.415	45.160927
798.617	45.213388
798.818	45.482494
799.020	45.584941
799.221	45.517657
799.423	45.396018
799.624	45.575370
799.826	46.045005
800.027	46.506192
800.228	47.013449
800.430	47.531337
800.631	48.118134
800.832	48.745329
801.034	49.030939
801.235	49.253098
801.436	49.529674
801.637	49.970922
801.839	50.401846
802.040	50.522069
802.241	50.453654
802.442	50.349537
802.643	50.332072
802.844	50.413367
803.046	50.408645
803.247	50.597198
803.448	50.797714
803.649	50.909791
803.850	51.032148
804.051	51.284779
804.252	51.662080
804.453	52.153760
804.654	52.580500
804.855	53.062624
805.056	53.358722
805.257	53.528944
805.458	53.643719
805.659	53.924374
805.859	54.239318
806.060	54.509831
806.261	54.445258
806.462	54.278504
806.663	54.097277
806.864	53.879004
807.064	53.763965
807.265	53.940676
807.466	54.248673
807.667	54.515489
807.867	54.571873
808.068	54.850002
808.269	55.319965
808.469	56.073608
808.670	56.803625
808.870	57.246084
809.071	57.527308
809.272	57.542471
809.472	57.366072
809.673	57.405701
809.873	57.504664
810.074	57.780985
810.274	57.945587
810.475	58.004300
810.675	58.043569
810.876	58.223969
811.076	58.712364
811.276	59.275486
811.477	60.013382
811.677	60.516201
811.878	60.668201
812.078	60.612500
812.278	60.517257
812.479	60.510614
812.679	60.370911
812.879	60.084031
813.079	59.950132
813.280	59.837042
813.480	59.691713
813.680	59.497155
813.880	59.659804
814.080	60.176183
814.280	60.712003
814.480	60.877506
814.681	60.919296
814.881	61.237663
815.081	61.453037
815.281	61.516069
815.481	61.612076
815.681	61.934685
815.881	62.341062
816.081	62.393160
816.281	62.064790
816.481	61.993297
816.681	62.424076
816.880	62.985345
817.080	63.224903
817.280	63.323827
817.480	63.245324
817.680	63.109059
817.880	63.219977
818.080	63.325982
818.279	63.627460
818.479	64.214074
818.679	64.665517
818.879	64.812932
819.078	64.394547
819.278	63.984790
819.478	64.046836
819.677	64.229903
819.877	64.562744
820.077	64.672583
820.276	64.695682
820.476	64.768755
820.675	64.831379
820.875	64.824552
821.074	64.854602
821.274	65.255904
821.473	65.731590
821.673	66.026672
821.872	66.450901
822.072	66.738727
822.271	66.976962
822.471	67.213155
822.670	67.291400
822.869	67.335550
823.069	67.671640
823.268	68.142955
823.467	68.631368
823.667	68.977593
823.866	69.233499
824.065	69.281643
824.265	69.073031
824.464	68.782586
824.663	68.757803
824.862	69.156139
825.061	69.692331
825.261	69.658499
825.460	69.268036
825.659	68.910198
825.858	68.758876
826.057	68.880508
826.256	69.231135
826.455	69.793814
826.654	70.421131
826.853	70.597933
827.052	70.160433
827.251	69.662933
827.450	69.679739
827.649	69.707994
827.848	69.514480
828.047	69.467100
828.246	69.482513
828.445	69.213600
828.644	69.100387
828.843	69.134589
829.041	69.588745
829.240	70.428102
829.439	70.809083
829.638	70.497774
829.836	70.315511
830.035	70.500315
830.234	70.615629
830.433	70.560976
830.631	70.738130
830.830	71.095955
831.029	71.455797
831.227	71.316813
831.426	70.992761
831.624	70.937954
831.823	71.384686
832.022	72.045949
832.220	72.686907
832.419	73.194324
832.617	73.198623
832.816	73.283616
833.014	73.268600
833.213	73.025989
833.411	73.023079
833.609	73.155605
833.808	73.050297
834.006	72.831615
834.205	72.603403
834.403	72.410068
834.601	72.297868
834.800	72.806337
834.998	72.920240
835.196	72.559924
835.394	72.217342
835.593	72.028244
835.791	71.834900
835.989	72.031437
836.187	72.338012
836.385	72.782393
836.584	73.107334
836.782	73.379035
836.980	73.378557
837.178	73.593410
837.376	73.930126
837.574	74.323782
837.772	74.680970
837.970	75.156356
838.168	75.461966
838.366	75.545937
838.564	75.507292
838.762	75.364772
838.960	75.062813
839.158	74.836294
839.356	74.662346
839.554	74.934204
839.752	75.312403
839.949	75.595809
840.147	75.800276
840.345	76.114140
840.543	76.638409
840.741	77.189378
840.938	77.549084
841.136	77.946102
841.334	78.128731
841.532	78.203931
841.729	77.867807
841.927	77.376392
842.125	77.122189
842.322	76.961376
842.520	76.820366
842.718	76.796183
842.915	76.736257
843.113	77.169045
843.310	77.727808
843.508	78.256075
843.705	78.457670
843.903	78.385548
844.100	78.221222
844.298	77.842990
844.495	77.444981
844.693	77.305836
844.890	77.227033
845.087	76.833612
845.285	76.240307
845.482	75.505061
845.679	74.715921
845.877	74.089368
846.074	73.849791
846.271	73.838306
846.469	73.882333
846.666	73.669472
846.863	73.224959
847.060	72.894516
847.257	72.816170
847.455	73.102760
847.652	73.544887
847.849	74.166586
848.046	74.820682
848.243	75.582392
848.440	76.167599
848.637	76.461743
848.834	76.780171
849.031	77.048001
849.228	77.321193
849.425	77.951664
849.622	78.264291
849.819	78.573378
850.016	78.780578
850.213	78.875385
850.410	78.886227
850.607	79.302776
850.804	80.068846
851.001	80.836993
851.198	81.579516
851.394	81.931553
851.591	81.809187
851.788	81.662017
851.985	81.272317
852.181	80.792205
852.378	80.639134
852.575	80.482039
852.772	80.099136
852.968	79.343666
853.165	78.653246
853.362	77.857096
853.558	77.457865
853.755	77.235887
853.951	77.004180
854.148	77.286224
854.345	77.214665
854.541	76.888313
854.738	76.731751
854.934	76.787584
855.131	77.152126
855.327	77.582103
855.523	78.251974
855.720	78.764998
855.916	78.769259
856.113	78.416686
856.309	77.864368
856.505	77.981292
856.702	78.437884
856.898	78.714661
857.094	78.614773
857.291	78.282452
857.487	77.896648
857.683	77.375499
857.879	76.717086
858.076	76.348001
858.272	76.403447
858.468	76.456713
858.664	76.388511
858.860	76.097750
859.056	75.832673
859.253	75.683024
859.449	75.874305
859.645	76.207755
859.841	76.287296
860.037	76.471829
860.233	76.692199
860.429	76.958199
860.625	77.024944
860.821	77.109824
861.017	77.356981
861.213	77.461967
861.409	77.703399
861.604	77.957762
861.800	78.013105
861.996	78.226421
862.192	78.453569
862.388	78.563844
862.584	78.557536
862.779	78.774229
862.975	79.176585
863.171	79.606570
863.367	80.045150
863.562	80.328587
863.758	80.060175
863.954	79.594398
864.149	79.339391
864.345	78.906661
864.541	78.508638
864.736	78.109164
864.932	77.677288
865.127	77.599532
865.323	77.309040
865.518	77.005039
865.714	76.765462
865.910	76.939513
866.105	77.347545
866.300	77.965601
866.496	78.507444
866.691	78.910369
866.887	79.109534
867.082	79.321094
867.277	78.997702
867.473	78.510422
867.668	78.340097
867.864	78.423249
868.059	78.436231
868.254	77.982551
868.449	77.071690
868.645	76.430725
868.840	76.134214
869.035	76.327544
869.230	76.834442
869.425	77.714264
869.621	78.756839
869.816	79.612415
870.011	80.281930
870.206	80.631888
870.401	80.997832
870.596	81.372406
870.791	81.741721
870.986	82.184821
871.181	82.237370
871.376	81.836282
871.571	80.732819
871.766	79.531980
871.961	78.303886
872.156	76.953354
872.351	76.278509
872.546	76.163830
872.741	76.111883
872.936	76.291707
873.130	76.548914
873.325	76.844858
873.520	77.030250
873.715	77.418157
873.910	78.110393
874.104	78.711074
874.299	79.776995
874.494	80.834018
874.688	81.157497
874.883	81.093098
875.078	80.989021
875.272	80.745566
875.467	80.484190
875.662	80.410263
875.856	80.475650
876.051	80.315374
876.245	80.373422
876.440	80.116830
876.634	79.686463
876.829	79.596103
877.023	79.783072
877.218	80.007205
877.412	80.235684
877.607	80.601292
877.801	81.072213
877.995	81.504478
878.190	81.932279
878.384	82.175302
878.578	82.388855
878.773	82.473971
878.967	82.742863
879.161	83.257022
879.356	83.162218
879.550	82.742249
879.744	82.413892
879.938	81.967862
880.133	81.436628
880.327	81.121844
880.521	80.770136
880.715	80.475994
880.909	79.945566
881.103	79.406027
881.297	78.873452
881.491	78.702190
881.685	78.682059
881.880	78.315682
882.073	77.870043
882.267	77.475318
882.461	76.998430
882.655	76.687817
882.849	76.747978
883.043	76.912617
883.237	77.236889
883.431	77.624894
883.625	77.863307
883.819	77.978031
884.013	78.237464
884.206	78.903876
884.400	79.469059
884.594	80.012729
884.788	80.646097
884.982	80.541641
885.175	80.697034
885.369	80.876996
885.563	80.749682
885.756	80.443726
885.950	80.693663
886.144	81.013144
886.337	81.186433
886.531	81.304781
886.724	81.362997
886.918	81.580201
887.112	82.153596
887.305	82.737765
887.499	83.137897
887.692	83.791451
887.885	84.692669
888.079	85.091135
888.272	85.312441
888.466	85.122562
888.659	85.124572
888.853	85.401480
889.046	85.437265
889.239	84.958783
889.433	83.862023
889.626	82.968368
889.819	82.142586
890.013	81.613204
890.206	81.334879
890.399	81.251999
890.592	81.446357
890.785	81.496010
890.979	81.383996
891.172	81.227450
891.365	81.095313
891.558	81.091211
891.751	80.490206
891.944	79.626424
892.137	78.756327
892.330	78.280205
892.524	78.306497
892.717	78.504233
892.910	79.114467
893.103	79.891346
893.296	80.805653
893.488	81.896548
893.681	82.877000
893.874	84.293599
894.067	85.252226
894.260	85.294816
894.453	85.127796
894.646	84.779225
894.839	84.430867
895.031	83.904247
895.224	83.167681
895.417	82.564253
895.610	82.259071
895.802	82.315356
895.995	82.278780
896.188	82.658617
896.381	83.495326
896.573	83.979759
896.766	84.101460
896.958	83.648479
897.151	83.387708
897.344	83.515496
897.536	83.396388
897.729	83.443463
897.921	83.823677
898.114	84.656689
898.306	85.569544
898.499	86.601848
898.691	87.522783
898.884	88.122167
899.076	88.919227
899.269	89.686982
899.461	90.178558
899.653	90.416907
899.846	90.411409
900.038	90.030663
900.230	88.910767
900.423	87.727049
900.615	86.862879
900.807	86.000393
901.000	85.558761
901.192	85.350709
901.384	84.832374
901.576	84.625226
901.768	85.010483
901.961	85.680156
902.153	86.254716
902.345	87.028004
902.537	87.766907
902.729	88.255909
902.921	88.838693
903.113	89.183525
903.305	89.599252
903.497	90.054988
903.689	90.061798
903.881	89.763577
904.073	89.261139
904.265	89.200310
904.457	89.968071
904.649	90.758256
904.841	90.773609
905.033	90.872547
905.224	91.352005
905.416	91.592381
905.608	91.690832
905.800	91.740201
905.992	91.243752
906.183	90.284702
906.375	89.093936
906.567	87.605657
906.759	86.429043
906.950	85.616570
907.142	84.690568
907.334	83.922962
907.525	83.382784
907.717	83.206598
907.909	82.776824
908.100	82.953733
908.292	83.130031
908.483	82.963735
908.675	82.413230
908.866	81.360777
909.058	80.505045
909.249	80.341241
909.441	79.867844
909.632	79.741564
909.824	79.150198
910.015	78.483632
910.206	77.710302
910.398	77.421290
910.589	77.745211
910.780	77.977557
910.972	78.696339
911.163	79.843385
911.354	80.261006
911.546	80.422769
911.737	80.136376
911.928	80.126783
912.119	80.459551
912.310	80.622120
912.502	80.517521
912.693	80.353185
912.884	80.365689
913.075	80.108171
913.266	79.694509
913.457	79.507052
913.648	79.544666
913.839	79.885724
914.030	80.157389
914.221	80.084420
914.412	80.571926
914.603	81.176952
914.794	81.546614
914.985	81.884784
915.176	82.330272
915.367	82.577143
915.558	82.558078
915.749	82.527788
915.940	82.406921
916.130	82.165444
916.321	82.330341
916.512	82.062070
916.703	82.018894
916.893	82.323974
917.084	82.923600
917.275	83.245010
917.466	83.426474
917.656	83.698412
917.847	83.933201
918.038	84.006113
918.228	84.465062
918.419	85.084339
918.609	86.005926
918.800	86.301250
918.990	86.085904
919.181	85.137614
919.372	84.096503
919.562	83.607350
919.753	83.745278
919.943	83.447259
920.133	83.398791
920.324	83.515095
920.514	83.380859
920.705	82.915791
920.895	82.732053
921.085	82.603094
921.276	83.130779
921.466	84.149002
921.656	85.100852
921.847	85.681169
922.037	86.699747
922.227	87.465086
922.417	87.513847
922.608	87.446754
922.798	87.554802
922.988	87.591381
923.178	87.572088
923.368	87.499603
923.558	87.223947
923.748	86.824241
923.939	86.427203
924.129	86.104484
924.319	85.589587
924.509	85.354358
924.699	84.887680
924.889	84.178078
925.079	83.765635
925.269	83.435657
925.459	82.920263
925.648	83.159791
925.838	83.484182
926.028	83.703177
926.218	84.108558
926.408	84.378015
926.598	84.590793
926.788	85.460618
926.977	86.677676
927.167	87.701609
927.357	89.006013
927.547	90.061669
927.736	90.235730
927.926	90.042871
928.116	89.746294
928.305	89.367016
928.495	89.120690
928.685	89.080792
928.874	88.802859
929.064	88.527218
929.253	89.063760
929.443	89.484845
929.633	90.220977
929.822	90.671840
930.012	90.790967
930.201	91.129159
930.391	91.146151
930.580	91.011698
930.769	90.682679
930.959	90.515762
931.148	90.440069
931.338	89.773543
931.527	89.048168
931.716	88.134825
931.906	87.647787
932.095	87.006170
932.284	86.510553
932.474	86.068971
932.663	85.752335
932.852	85.295425
933.041	84.605293
933.230	83.900503
933.420	82.778915
933.609	81.806955
933.798	81.344270
933.987	80.907334
934.176	80.723789
934.365	80.498039
934.554	80.546919
934.743	81.246988
934.932	82.257982
935.121	83.405068
935.310	84.513997
935.499	85.930785
935.688	86.885367
935.877	87.470905
936.066	88.104229
936.255	89.141436
936.444	89.758696
936.633	90.288937
936.822	90.385459
937.010	90.503394
937.199	90.480530
937.388	89.669930
937.577	88.923329
937.766	88.694676
937.954	88.553044
938.143	88.158873
938.332	87.412106
938.520	87.031951
938.709	86.898503
938.898	86.646364
939.086	86.242915
939.275	85.905101
939.464	85.945578
939.652	85.856737
939.841	85.649397
940.029	85.677292
940.218	85.791265
940.406	85.921222
940.595	85.937921
940.783	86.269375
940.972	86.930328
941.160	87.418860
941.349	88.035686
941.537	88.513115
941.725	88.890717
941.914	89.565584
942.102	89.862819
942.290	90.094177
942.479	90.587520
942.667	91.286722
942.855	91.128444
943.043	90.510065
943.232	90.328986
943.420	90.295454
943.608	89.787065
943.796	89.215348
943.984	88.530300
944.172	87.969571
944.361	87.835315
944.549	88.197446
944.737	88.354820
944.925	88.615763
945.113	89.460218
945.301	89.697422
945.489	89.747084
945.677	90.509938
945.865	91.039584
946.053	91.316011
946.241	91.501761
946.429	91.810829
946.617	91.422324
946.805	91.465229
946.992	91.671479
947.180	91.254527
947.368	90.837834
947.556	90.798960
947.744	90.891487
947.931	91.015531
948.119	91.265106
948.307	91.667625
948.495	91.885384
948.682	92.118675
948.870	91.787664
949.058	91.644796
949.245	91.480643
949.433	91.667054
949.621	90.829420
949.808	89.655997
949.996	89.496205
950.183	89.732576
950.371	89.989684
950.558	90.088892
950.746	90.644107
950.933	91.389354
951.121	91.737882
951.308	92.125524
951.496	92.567774
951.683	93.578079
951.870	95.196757
952.058	96.106429
952.245	96.046665
952.433	95.489361
952.620	94.893949
952.807	93.815396
952.994	93.127446
953.182	92.997209
953.369	92.891867
953.556	92.572824
953.743	92.388793
953.931	91.791650
954.118	90.816351
954.305	90.405898
954.492	90.310595
954.679	90.595219
954.866	91.154308
955.053	91.168724
955.240	90.968543
955.427	90.483642
955.615	90.512081
955.802	90.468182
955.989	90.340563
956.175	90.259742
956.362	90.040800
956.549	89.741595
956.736	88.365423
956.923	87.428727
957.110	86.472092
957.297	84.916181
957.484	84.488838
957.671	84.152842
957.857	83.643297
958.044	83.002207
958.231	83.102628
958.418	83.386381
958.604	83.597934
958.791	84.305115
958.978	84.355048
959.165	84.275755
959.351	85.793626
959.538	87.499603
959.724	88.387621
959.911	88.824926
960.098	89.972847
960.284	90.966156
960.471	91.269281
960.657	91.955157
960.844	92.728209
961.030	93.645577
961.217	94.699273
961.403	93.992491
961.590	92.445342
961.776	91.769431
961.963	92.001113
962.149	91.669491
962.335	90.480697
962.522	89.713008
962.708	88.829368
962.894	88.280122
963.081	87.704729
963.267	86.917071
963.453	86.748298
963.639	87.324586
963.826	87.321841
964.012	87.819144
964.198	87.848298
964.384	88.324250
964.570	88.873169
964.756	89.500221
964.943	90.133904
965.129	90.965049
965.315	91.315387
965.501	91.834730
965.687	91.452792
965.873	91.443588
966.059	90.740263
966.245	90.531047
966.431	90.861161
966.617	91.399797
966.803	91.418025
966.989	91.531336
967.174	91.482977
967.360	92.082803
967.546	92.109138
967.732	92.650195
967.918	93.273404
968.104	94.008344
968.289	94.995499
968.475	95.237330
968.661	95.393912
968.847	95.691801
969.032	95.618795
969.218	95.439952
969.404	95.551007
969.589	96.208770
969.775	95.803099
969.961	95.049386
970.146	94.182707
970.332	93.047372
970.517	91.759539
970.703	90.483091
970.888	89.475371
971.074	89.123971
971.260	88.811763
971.445	88.422587
971.630	88.226505
971.816	88.411041
972.001	88.802351
972.187	88.578693
972.372	87.986824
972.557	88.507180
972.743	89.035520
972.928	89.328413
973.113	88.720002
973.299	88.686261
973.484	88.869222
973.669	88.096296
973.854	87.460327
974.040	87.579750
974.225	88.402610
974.410	89.480355
974.595	89.856130
974.780	90.436021
974.965	91.112499
975.151	92.053566
975.336	92.277937
975.521	92.421548
975.706	93.150349
975.891	93.833029
976.076	93.484472
976.261	92.998004
976.446	92.302556
976.631	91.482055
976.816	90.451394
977.001	90.036112
977.186	90.082511
977.370	90.423622
977.555	90.755827
977.740	91.047882
977.925	91.922345
978.110	92.746583
978.295	93.224405
978.479	93.852860
978.664	94.629970
978.849	95.032787
979.034	95.021814
979.218	95.147094
979.403	95.334449
979.588	95.370215
979.772	95.586432
979.957	94.732938
980.141	93.985541
980.326	93.983807
980.511	93.772581
980.695	93.616124
980.880	93.780951
981.064	93.657996
981.249	92.644539
981.433	91.572339
981.618	90.915034
981.802	90.279428
981.987	89.718514
982.171	89.489788
982.355	88.165929
982.540	87.363004
982.724	87.087138
982.908	87.179941
983.093	87.377514
983.277	87.944724
983.461	88.740022
983.646	89.215743
983.830	88.964972
984.014	89.582523
984.198	90.000222
984.382	90.764476
984.567	92.195948
984.751	93.573870
984.935	94.412099
985.119	94.853661
985.303	94.509511
985.487	93.418322
985.671	92.282804
985.855	92.924247
986.039	93.605236
986.223	93.924771
986.407	94.786945
986.591	94.731328
986.775	93.817939
986.959	93.513463
987.143	92.920158
987.327	92.890353
987.511	94.094118
987.695	94.532428
987.879	94.547461
988.062	94.070238
988.246	93.360661
988.430	92.160480
988.614	91.622853
988.797	91.460889
988.981	90.875827
989.165	90.616474
989.349	90.697751
989.532	90.232430
989.716	91.069389
989.900	91.319716
990.083	91.815480
990.267	92.712308
990.450	94.222789
990.634	95.352230
990.817	96.498114
991.001	97.180305
991.184	97.402753
991.368	98.027564
991.551	98.296494
991.735	97.981849
991.918	98.132102
992.102	97.867709
992.285	97.372670
992.469	96.362682
992.652	94.736923
992.835	93.704611
993.019	93.371671
993.202	93.725616
993.385	93.876035
993.568	94.510116
993.752	95.112016
993.935	95.502599
994.118	96.030568
994.301	96.991739
994.484	97.495788
994.668	98.505354
994.851	98.532708
995.034	98.634199
995.217	98.938570
995.400	99.151099
995.583	99.082363
995.766	98.762289
995.949	98.316880
996.132	98.381114
996.315	98.298361
996.498	97.707071
996.681	97.056399
996.864	96.846558
997.047	96.798287
997.230	96.790944
997.413	97.241221
997.596	96.468895
997.778	95.421937
997.961	94.955046
998.144	93.978456
998.327	93.025235
998.510	92.981908
998.692	93.436962
998.875	93.400715
999.058	93.378341
999.241	93.276808
999.423	92.098864
999.606	92.250271
999.789	93.666818
999.971	94.073003
1000.154	95.102953
1000.336	96.648698
1000.519	98.099144
1000.701	98.528237
1000.884	99.641110
1001.067	100.049334
1001.249	99.651944
1001.431	99.434278
1001.614	99.710334
1001.796	99.833362
1001.979	100.480815
1002.161	99.981740
1002.344	99.264814
1002.526	98.275238
1002.708	97.835742
1002.891	97.450742
1003.073	98.053282
1003.255	99.448414
1003.438	100.314374
1003.620	99.825695
1003.802	98.274627
1003.984	96.981705
1004.166	96.412014
1004.349	95.355242
1004.531	95.485055
1004.713	95.721696
1004.895	94.535405
1005.077	92.669810
1005.259	92.155293
1005.441	91.721068
1005.623	91.502942
1005.805	91.866142
1005.987	91.523095
1006.169	91.664505
1006.351	91.943474
1006.533	91.501233
1006.715	91.709056
1006.897	93.379200
1007.079	94.500042
1007.261	94.000139
1007.443	94.273198
1007.625	94.919736
1007.806	95.607503
1007.988	95.617838
1008.170	96.383287
1008.352	97.098854
1008.534	97.455953
1008.715	96.688914
1008.897	96.759579
1009.079	97.858003
1009.260	99.108393
1009.442	100.336953
1009.624	100.532730
1009.805	100.021794
1009.987	101.611542
1010.169	101.166100
1010.350	100.849823
1010.532	100.566862
1010.713	101.399953
1010.895	100.537606
1011.076	99.253246
1011.258	98.709413
1011.439	97.629178
1011.621	97.568528
1011.802	98.816803
1011.983	98.920815
1012.165	98.723283
1012.346	98.723010
1012.527	98.688582
1012.709	98.166743
1012.890	97.690399
1013.071	97.011482
1013.253	96.546849
1013.434	96.325038
1013.615	95.670059
1013.796	95.106480
1013.978	94.364159
1014.159	93.981977
1014.340	94.027174
1014.521	94.563865
1014.702	94.252692
1014.883	93.793906
1015.064	93.662925
1015.245	93.074865
1015.427	92.654208
1015.608	93.122680
1015.789	92.791184
1015.970	92.872130
1016.151	92.720544
1016.332	92.221557
1016.512	90.829634
1016.693	90.608670
1016.874	90.974309
1017.055	91.187833
1017.236	91.843880
1017.417	92.345298
1017.598	91.261250
1017.779	90.831520
1017.959	90.737466
1018.140	91.732463
1018.321	92.379683
1018.502	93.873490
1018.682	94.843876
1018.863	95.779092
1019.044	96.360208
1019.224	95.712255
1019.405	95.705562
1019.586	97.006239
1019.766	97.817830
1019.947	98.330134
1020.127	97.777370
1020.308	97.310006
1020.488	97.820065
1020.669	97.353766
1020.849	97.483768
1021.030	97.935539
1021.210	98.915757
1021.391	99.324570
1021.571	98.587418
1021.752	98.172789
1021.932	96.817154
1022.112	96.263295
1022.293	95.791948
1022.473	94.352279
1022.653	95.387107
1022.834	95.963124
1023.014	96.050419
1023.194	96.317983
1023.374	96.552194
1023.555	97.162506
1023.735	97.728663
1023.915	98.566119
1024.095	98.907814
1024.275	100.310094
1024.455	101.341262
1024.635	99.087086
1024.816	97.627764
1024.996	97.637498
1025.176	97.056867
1025.356	95.549602
1025.536	94.893985
1025.716	93.683017
1025.896	93.402629
1026.076	92.409678
1026.256	90.803394
1026.436	90.051949
1026.615	91.007609
1026.795	91.072013
1026.975	89.270004
1027.155	88.914260
1027.335	89.938838
1027.515	90.993544
1027.695	92.311623
1027.874	93.045327
1028.054	93.703188
1028.234	93.982196
1028.413	94.689332
1028.593	94.042401
1028.773	94.010351
1028.953	94.875331
1029.132	94.513583
1029.312	94.362375
1029.491	93.954645
1029.671	93.242425
1029.851	93.677625
1030.030	94.136215
1030.210	94.579845
1030.389	93.706368
1030.569	93.651725
1030.748	93.956731
1030.928	94.750550
1031.107	95.970374
1031.286	96.136151
1031.466	96.023630
1031.645	96.951409
1031.825	95.868078
1032.004	96.489427
1032.183	97.002901
1032.363	97.181204
1032.542	98.323659
1032.721	99.838967
1032.900	99.898090
1033.080	99.466949
1033.259	99.200919
1033.438	99.818126
1033.617	99.508386
1033.796	100.989727
1033.975	100.427967
1034.155	100.125802
1034.334	100.862064
1034.513	100.804139
1034.692	98.702987
1034.871	98.200282
1035.050	97.579046
1035.229	98.157858
1035.408	98.586907
1035.587	98.674386
1035.766	97.845367
1035.945	98.219911
1036.124	98.275302
1036.303	98.078597
1036.481	99.141236
1036.660	99.595555
1036.839	99.497770
1037.018	99.712057
1037.197	99.083334
1037.376	97.157447
1037.554	95.873874
1037.733	95.685868
1037.912	95.495809
1038.091	95.009197
1038.269	94.561696
1038.448	92.696025
1038.627	92.627013
1038.805	91.357763
1038.984	91.350024
1039.162	90.819158
1039.341	91.034558
1039.520	91.480587
1039.698	91.332675
1039.877	91.404249
1040.055	92.129070
1040.234	92.236615
1040.412	92.289904
1040.591	93.104299
1040.769	95.394280
1040.947	96.228683
1041.126	96.315011
1041.304	97.495628
1041.483	98.599265
1041.661	98.324197
1041.839	97.701821
1042.017	97.791384
1042.196	98.553702
1042.374	99.891391
1042.552	97.846258
1042.730	96.842525
1042.909	96.483387
1043.087	97.448975
1043.265	97.951749
1043.443	97.543285
1043.621	97.950601
1043.799	98.419657
1043.978	99.088372
1044.156	98.792927
1044.334	97.466902
1044.512	98.378261
1044.690	97.902762
1044.868	97.073958
1045.046	95.988265
1045.224	94.152191
1045.402	92.878588
1045.580	92.061722
1045.758	91.227932
1045.935	90.194159
1046.113	88.865509
1046.291	88.909086
1046.469	88.807410
1046.647	89.253289
1046.825	89.867632
1047.002	90.456646
1047.180	91.491850
1047.358	92.723546
1047.536	93.556817
1047.713	94.380985
1047.891	93.722325
1048.069	94.114105
1048.246	95.190526
1048.424	95.780159
1048.602	95.108441
1048.779	94.511912
1048.957	93.772512
1049.134	93.909248
1049.312	93.326222
1049.489	92.667505
1049.667	92.142110
1049.844	92.336719
1050.022	92.343355
1050.199	91.329457
1050.377	90.618239
1050.554	91.611566
1050.731	92.659468
1050.909	93.156657
1051.086	92.736009
1051.263	92.674169
1051.441	93.406276
1051.618	93.900183
1051.795	93.870331
1051.973	94.389292
1052.150	94.874388
1052.327	95.928841
1052.504	95.669557
1052.681	95.109579
1052.859	94.986336
1053.036	95.012090
1053.213	95.381157
1053.390	95.756456
1053.567	95.673266
1053.744	95.883370
1053.921	95.282441
1054.098	94.958925
1054.275	94.459196
1054.452	93.914362
1054.629	94.275826
1054.806	94.605452
1054.983	94.086088
1055.160	93.454413
1055.337	92.624724
1055.514	92.862895
1055.691	93.189736
1055.868	93.510546
1056.044	93.315882
1056.221	93.329033
1056.398	94.097486
1056.575	93.557267
1056.751	93.603857
1056.928	94.546352
1057.105	94.749244
1057.282	94.753736
1057.458	94.322227
1057.635	94.453660
1057.812	94.833596
1057.988	95.143169
1058.165	95.493698
1058.341	95.591734
1058.518	95.925647
1058.694	95.659888
1058.871	95.246941
1059.047	95.295057
1059.224	94.687916
1059.401	94.452692
1059.577	94.628605
1059.753	94.534296
1059.930	94.604824
1060.106	94.752412
1060.282	94.332941
1060.459	93.994569
1060.635	93.960842
1060.812	93.953558
1060.988	94.426358
1061.164	95.167445
1061.340	95.249342
1061.517	93.837358
1061.693	93.245240
1061.869	92.816656
1062.045	92.033139
1062.221	91.466434
1062.398	91.149402
1062.574	91.739421
1062.750	92.155136
1062.926	91.620753
1063.102	91.105196
1063.278	91.326474
1063.454	92.276948
1063.630	92.255053
1063.806	92.732988
1063.982	93.086867
1064.158	92.767469
1064.334	92.803344
1064.510	92.341301
1064.686	91.857283
1064.862	91.919230
1065.038	91.362678
1065.214	90.387216
1065.389	89.400929
1065.565	88.377585
1065.741	87.823393
1065.917	87.031984
1066.093	87.638057
1066.268	88.079186
1066.444	87.544300
1066.620	87.731918
1066.795	87.760220
1066.971	88.584041
1067.147	88.903156
1067.322	89.691591
1067.498	91.213138
1067.673	91.408189
1067.849	91.206907
1068.025	90.952415
1068.200	90.989301
1068.376	91.799268
1068.551	91.763649
1068.727	91.243269
1068.902	90.130932
1069.078	90.393416
1069.253	89.965246
1069.428	89.253652
1069.604	88.882873
1069.779	88.947090
1069.954	89.263318
1070.130	89.149775
1070.305	89.360554
1070.480	89.502132
1070.656	89.282030
1070.831	90.010640
1071.006	89.962939
1071.181	89.926543
1071.357	90.039727
1071.532	89.364831
1071.707	89.356762
1071.882	88.602150
1072.057	88.053239
1072.232	86.415870
1072.407	85.479338
1072.582	85.731552
1072.757	85.235249
1072.932	85.196003
1073.107	85.050902
1073.282	84.224455
1073.457	84.602758
1073.632	84.392197
1073.807	83.952168
1073.982	83.919776
1074.157	84.690381
1074.332	84.862501
1074.507	84.705829
1074.682	84.778570
1074.856	84.007384
1075.031	83.464634
1075.206	84.425723
1075.381	84.297555
1075.556	83.868981
1075.730	84.359283
1075.905	84.677216
1076.080	84.804423
1076.254	85.056654
1076.429	84.884169
1076.604	84.254884
1076.778	84.368140
1076.953	85.692925
1077.127	85.840615
1077.302	86.633787
1077.477	87.482613
1077.651	87.883900
1077.826	87.588130
1078.000	86.499000
1078.175	85.666855
1078.349	85.191889
1078.523	86.099819
1078.698	86.570386
1078.872	85.747982
1079.047	85.306718
1079.221	84.608898
1079.395	83.795596
1079.570	83.659024
1079.744	83.388426
1079.918	83.370289
1080.092	83.936625
1080.267	84.747011
1080.441	84.768524
1080.615	84.799391
1080.789	85.364377
1080.963	85.999612
1081.137	86.609702
1081.312	87.261782
1081.486	87.480835
1081.660	88.336522
1081.834	89.569610
1082.008	89.809210
1082.182	89.429781
1082.356	89.495120
1082.530	89.975459
1082.704	89.625729
1082.878	88.852198
1083.052	88.570754
1083.226	88.680361
1083.400	88.104296
1083.573	87.414170
1083.747	86.594931
1083.921	86.726497
1084.095	87.049222
1084.269	86.768363
1084.443	85.786845
1084.616	85.344631
1084.790	85.636289
1084.964	85.356419
1085.138	85.106476
1085.311	84.949241
1085.485	84.102386
1085.659	83.758373
1085.832	83.173111
1086.006	82.264459
1086.179	81.209356
1086.353	81.770314
1086.527	82.248024
1086.700	82.289748
1086.874	82.463382
1087.047	82.049452
1087.221	81.993872
1087.394	82.097185
1087.568	82.725909
1087.741	83.092250
1087.914	83.381414
1088.088	83.989836
1088.261	83.439487
1088.435	82.558373
1088.608	81.244530
1088.781	80.554398
1088.954	80.665912
1089.128	81.081563
1089.301	81.524765
1089.474	80.647822
1089.647	79.662027
1089.821	79.374378
1089.994	79.246122
1090.167	78.645394
1090.340	79.222046
1090.513	80.171596
1090.686	80.531787
1090.859	80.684120
1091.032	80.149138
1091.206	80.184705
1091.379	80.336474
1091.552	81.082225
1091.725	81.104448
1091.898	80.721823
1092.071	81.133011
1092.244	80.136482
1092.416	79.283017
1092.589	78.994124
1092.762	78.811001
1092.935	78.734145
1093.108	78.595299
1093.281	78.619806
1093.453	78.046311
1093.626	77.832138
1093.799	78.240744
1093.972	78.527090
1094.145	78.936286
1094.317	79.089370
1094.490	78.978364
1094.663	78.919813
1094.835	78.594473
1095.008	77.857619
1095.181	77.143299
1095.353	76.637407
1095.526	76.569993
1095.698	76.243191
1095.871	75.773051
1096.043	76.126972
1096.216	75.958444
1096.388	75.792447
1096.561	75.445681
1096.733	75.782249
1096.906	76.573116
1097.078	77.237881
1097.250	77.806968
1097.423	78.417147
1097.595	79.200891
1097.768	78.946170
1097.940	78.519267
1098.112	79.175253
1098.284	79.921102
1098.457	79.944912
1098.629	79.311407
1098.801	78.509333
1098.973	78.538524
1099.146	78.423172
1099.318	78.358126
1099.490	78.676869
1099.662	79.132004
1099.834	79.543091
1100.006	79.545286
1100.178	79.108541
1100.350	79.679479
1100.522	79.794619
1100.694	80.242742
1100.866	79.723036
1101.038	79.207636
1101.210	79.118791
1101.382	78.566114
1101.554	78.388975
1101.726	77.789280
1101.898	77.547742
1102.070	76.753577
1102.241	75.739741
1102.413	75.515803
1102.585	75.242961
1102.757	75.096121
1102.929	75.666810
1103.100	75.534155
1103.272	74.988250
1103.444	75.307346
1103.616	75.564044
1103.787	75.424069
1103.959	75.517862
1104.130	75.841713
1104.302	76.228537
1104.474	76.491826
1104.645	76.314170
1104.817	75.693555
1104.988	75.594070
1105.160	75.040687
1105.331	73.973100
1105.503	73.417420
1105.674	73.122641
1105.846	73.498687
1106.017	73.953866
1106.189	73.961271
1106.360	73.490873
1106.531	73.544596
1106.703	73.515032
1106.874	73.517637
1107.045	74.045480
1107.217	74.091474
1107.388	73.847147
1107.559	73.643348
1107.730	73.566074
1107.902	73.337873
1108.073	73.072758
1108.244	72.853393
1108.415	72.735558
1108.586	72.244334
1108.757	71.088597
1108.929	70.731390
1109.100	70.913172
1109.271	70.701691
1109.442	70.455798
1109.613	70.173341
1109.784	69.710005
1109.955	69.730301
1110.126	70.321591
1110.297	70.639907
1110.468	71.010912
1110.639	71.428992
1110.809	71.336470
1110.980	71.132743
1111.151	70.771952
1111.322	70.550777
1111.493	70.688827
1111.664	70.752536
1111.834	70.465504
1112.005	69.801584
1112.176	69.588554
1112.347	69.577720
1112.517	69.360288
1112.688	68.863232
1112.859	68.719412
1113.029	69.499149
1113.200	69.562934
1113.371	69.117228
1113.541	68.681765
1113.712	68.640704
1113.882	68.663989
1114.053	68.359656
1114.223	68.262175
1114.394	68.203809
1114.564	68.405104
1114.735	68.744141
1114.905	68.390180
1115.076	68.436186
1115.246	68.696902
1115.416	68.980095
1115.587	69.099337
1115.757	69.338977
1115.927	69.977437
1116.098	70.195284
1116.268	70.606134
1116.438	70.492042
1116.609	69.944311
1116.779	69.813480
1116.949	70.107091
1117.119	69.819965
1117.289	69.110150
1117.459	68.280496
1117.630	68.041291
1117.800	67.614853
1117.970	67.358507
1118.140	67.695459
1118.310	67.976297
1118.480	68.337738
1118.650	68.651604
1118.820	68.073974
1118.990	67.719326
1119.160	68.179137
1119.330	68.599070
1119.500	68.365970
1119.670	67.835297
1119.840	67.699608
1120.010	66.782022
1120.179	66.168514
1120.349	65.705461
1120.519	65.499439
1120.689	65.568982
1120.859	65.692162
1121.028	65.491487
1121.198	65.482463
1121.368	65.583841
1121.538	66.264519
1121.707	66.262062
1121.877	66.564856
1122.047	67.160142
1122.216	67.608667
1122.386	67.700326
1122.555	67.677906
1122.725	67.854817
1122.894	67.942841
1123.064	67.987348
1123.233	67.762581
1123.403	67.455883
1123.573	66.900366
1123.742	66.813707
1123.911	66.083241
1124.081	65.261799
1124.250	64.676232
1124.419	64.302912
1124.589	64.004315
1124.758	63.975843
1124.927	63.456791
1125.097	63.562888
1125.266	63.655737
1125.435	64.172465
1125.605	64.320716
1125.774	64.631397
1125.943	65.169390
1126.112	65.471427
1126.281	65.672325
1126.450	65.646253
1126.620	65.308464
1126.789	65.687236
1126.958	65.946832
1127.127	65.919409
1127.296	65.576955
1127.465	65.171861
1127.634	65.045514
1127.803	64.552892
1127.972	64.073097
1128.141	63.958122
1128.310	63.929709
1128.479	63.353943
1128.648	62.979400
1128.817	62.369712
1128.985	61.858901
1129.154	61.596661
1129.323	61.474641
1129.492	61.371304
1129.661	61.455654
1129.829	61.766410
1129.998	62.118529
1130.167	62.009522
1130.336	62.894162
1130.504	63.150886
1130.673	63.181535
1130.842	63.388864
1131.010	63.598106
1131.179	63.777844
1131.347	63.920854
1131.516	63.972186
1131.685	63.878954
1131.853	63.525906
1132.022	63.299926
1132.190	62.617380
1132.359	61.896327
1132.527	61.200234
1132.696	60.838310
1132.864	60.690690
1133.032	60.162336
1133.201	59.639678
1133.369	59.374849
1133.537	59.003351
1133.706	58.456654
1133.874	58.308661
1134.042	58.654963
1134.211	59.445544
1134.379	59.788191
1134.547	59.494744
1134.715	59.005134
1134.884	58.976448
1135.052	58.941061
1135.220	58.885467
1135.388	58.905025
1135.556	58.928954
1135.724	58.688282
1135.892	57.800792
1136.060	56.685824
1136.228	56.193963
1136.396	55.981134
1136.564	56.182880
1136.732	55.940677
1136.900	55.898467
1137.068	55.662341
1137.236	55.944649
1137.404	56.299741
1137.572	56.498128
1137.740	56.900514
1137.908	57.508063
1138.076	57.829683
1138.243	57.851696
1138.411	57.613760
1138.579	58.104614
1138.747	58.675165
1138.914	58.693567
1139.082	57.947722
1139.250	57.414813
1139.417	57.178378
1139.585	57.295870
1139.753	57.196441
1139.920	56.936611
1140.088	57.540817
1140.256	57.671243
1140.423	57.273852
1140.591	57.143645
1140.758	57.627607
1140.926	58.294014
1141.093	58.838525
1141.261	59.031612
1141.428	58.859414
1141.596	58.814625
1141.763	59.245381
1141.930	58.790537
1142.098	58.863267
1142.265	59.266634
1142.432	59.041730
1142.600	58.190634
1142.767	57.585101
1142.934	57.182100
1143.102	57.098501
1143.269	56.824238
1143.436	56.779244
1143.603	56.373393
1143.771	55.925995
1143.938	55.676917
1144.105	55.244479
1144.272	54.669615
1144.439	54.493099
1144.606	54.686389
1144.773	54.202116
1144.940	53.745979
1145.107	53.550264
1145.274	53.236194
1145.441	53.046865
1145.608	53.507816
1145.775	53.321047
1145.942	52.946433
1146.109	52.928534
1146.276	53.279095
1146.443	53.531330
1146.610	54.521965
1146.776	55.097869
1146.943	54.966824
1147.110	55.144593
1147.277	55.510732
1147.444	55.389761
1147.610	55.810801
1147.777	56.219313
1147.944	56.274293
1148.110	56.428646
1148.277	56.129540
1148.444	55.373003
1148.610	55.202758
1148.777	55.827901
1148.944	55.948180
1149.110	56.346551
1149.277	56.007841
1149.443	55.555969
1149.610	55.715508
1149.776	55.804276
1149.943	55.434766
1150.109	54.825308
1150.276	54.460997
1150.442	54.336675
1150.608	53.809666
1150.775	53.530532
1150.941	52.962461
1151.107	53.186369
1151.274	53.607823
1151.440	53.659909
1151.606	53.604838
1151.773	53.311290
1151.939	53.163957
1152.105	53.238026
1152.271	53.028083
1152.438	52.482628
1152.604	52.172185
1152.770	51.492645
1152.936	51.210651
1153.102	50.794931
1153.268	50.437315
1153.434	50.301422
1153.600	50.095100
1153.766	49.932640
1153.932	49.621481
1154.098	49.824869
1154.264	50.708125
1154.430	50.311069
1154.596	50.194159
1154.762	50.107479
1154.928	49.868081
1155.094	49.450964
1155.260	49.133320
1155.426	49.726274
1155.591	50.428688
1155.757	50.807252
1155.923	50.758553
1156.089	50.673961
1156.255	51.243883
1156.420	51.570875
1156.586	51.250332
1156.752	51.083821
1156.917	51.104362
1157.083	51.887212
1157.249	51.555743
1157.414	51.176207
1157.580	51.457674
1157.745	51.300816
1157.911	50.605845
1158.076	50.497558
1158.242	50.607522
1158.407	50.812037
1158.573	51.207269
1158.738	51.491944
1158.904	50.800974
1159.069	50.697474
1159.235	50.678319
1159.400	50.253360
1159.565	50.220260
1159.731	50.281337
1159.896	49.927265
1160.061	49.357306
1160.227	48.940106
1160.392	48.579746
1160.557	48.390126
1160.722	48.575943
1160.888	48.405398
1161.053	48.486882
1161.218	48.302171
1161.383	47.948016
1161.548	48.119565
1161.713	48.315300
1161.878	49.122970
1162.043	49.708024
1162.208	49.595091
1162.374	49.286921
1162.539	49.279803
1162.704	49.782020
1162.869	49.874735
1163.033	50.294671
1163.198	50.466508
1163.363	50.426832
1163.528	50.481125
1163.693	49.966691
1163.858	49.948555
1164.023	50.016261
1164.188	49.998698
1164.353	49.488418
1164.517	49.241479
1164.682	49.160594
1164.847	48.628553
1165.011	48.716986
1165.176	48.571516
1165.341	48.279862
1165.506	48.554522
1165.670	48.570101
1165.835	48.887138
1166.000	49.068344
1166.164	49.206228
1166.329	48.963362
1166.493	48.663987
1166.658	48.874417
1166.822	48.947182
1166.987	48.967357
1167.151	48.638242
1167.316	48.370318
1167.480	47.950297
1167.645	47.823702
1167.809	48.067633
1167.973	48.396656
1168.138	48.341322
1168.302	48.465539
1168.466	48.767849
1168.631	48.467020
1168.795	48.505600
1168.959	49.678054
1169.124	50.178478
1169.288	50.519048
1169.452	50.288052
1169.616	49.780511
1169.780	49.320641
1169.944	49.043978
1170.109	48.682263
1170.273	48.299680
1170.437	48.671778
1170.601	48.896121
1170.765	48.538947
1170.929	47.944016
1171.093	47.897201
1171.257	48.271860
1171.421	48.391146
1171.585	48.533734
1171.749	49.138642
1171.913	49.564430
1172.077	49.239507
1172.240	48.842207
1172.404	49.059989
1172.568	49.231179
1172.732	49.517132
1172.896	49.142957
1173.060	48.626513
1173.223	49.100586
1173.387	49.206069
1173.551	48.734842
1173.715	48.577032
1173.878	49.088499
1174.042	49.491935
1174.206	49.158981
1174.369	48.870896
1174.533	49.169562
1174.696	49.520509
1174.860	49.999566
1175.023	50.130123
1175.187	50.285432
1175.351	50.411461
1175.514	50.361268
1175.677	50.456388
1175.841	49.874556
1176.004	49.566815
1176.168	49.221806
1176.331	48.951852
1176.495	49.265215
1176.658	49.359534
1176.821	49.164766
1176.985	48.545795
1177.148	48.143214
1177.311	48.275608
1177.474	47.809194
1177.638	48.284658
1177.801	48.933076
1177.964	49.138441
1178.127	48.855752
1178.291	47.849660
1178.454	46.913943
1178.617	46.492491
1178.780	47.014548
1178.943	47.727043
1179.106	47.900754
1179.269	48.216023
1179.432	47.865282
1179.595	47.444785
1179.758	47.400656
1179.921	47.812416
1180.084	48.691111
1180.247	49.144158
1180.410	49.007510
1180.573	48.973559
1180.736	48.930458
1180.899	48.777703
1181.061	48.810203
1181.224	49.240986
1181.387	49.461943
1181.550	49.523707
1181.713	49.292026
1181.875	49.167087
1182.038	49.389175
1182.201	49.704205
1182.363	49.689316
1182.526	49.660396
1182.689	49.706718
1182.851	49.593032
1183.014	49.352758
1183.177	49.427932
1183.339	49.262680
1183.502	48.797238
1183.664	48.613970
1183.827	48.584730
1183.989	48.446032
1184.152	48.605235
1184.314	49.045643
1184.477	49.196707
1184.639	49.555753
1184.801	49.652361
1184.964	49.427844
1185.126	49.583653
1185.288	50.048335
1185.451	49.815186
1185.613	49.712440
1185.775	49.938618
1185.938	49.671566
1186.100	48.815331
1186.262	48.414969
1186.424	48.282399
1186.586	48.619697
1186.749	49.171526
1186.911	49.420636
1187.073	49.387798
1187.235	49.635176
1187.397	49.602164
1187.559	49.442733
1187.721	49.786894
1187.883	50.314074
1188.045	50.586134
1188.207	50.925026
1188.369	50.984973
1188.531	50.630000
1188.693	50.876137
1188.855	51.275290
1189.017	51.466107
1189.179	51.971514
1189.341	52.284318
1189.502	52.185115
1189.664	52.079164
1189.826	52.624682
1189.988	52.634490
1190.150	52.425954
1190.311	52.346561
1190.473	51.970199
1190.635	51.649998
1190.796	51.609453
1190.958	51.665198
1191.120	51.614249
1191.281	51.378682
1191.443	51.695687
1191.604	51.477785
1191.766	51.180870
1191.928	51.046623
1192.089	51.137444
1192.251	51.732012
1192.412	52.198561
1192.574	52.959674
1192.735	53.394610
1192.896	53.915490
1193.058	54.142840
1193.219	54.192297
1193.381	54.412339
1193.542	54.636349
1193.703	55.119652
1193.865	55.053507
1194.026	54.398866
1194.187	54.138994
1194.349	53.744256
1194.510	53.182491
1194.671	52.337030
1194.832	52.234665
1194.993	52.076928
1195.155	51.954403
1195.316	51.763598
1195.477	50.953482
1195.638	50.622513
1195.799	50.818530
1195.960	51.318482
1196.121	51.257748
1196.282	51.777951
1196.443	52.553021
1196.604	52.848189
1196.765	53.147456
1196.926	53.017145
1197.087	53.068168
1197.248	53.434249
1197.409	54.150096
1197.570	53.900939
1197.730	53.505422
1197.891	53.330650
1198.052	53.177693
1198.213	53.361820
1198.374	53.243115
1198.534	52.846246
1198.695	52.879906
1198.856	53.127881
1199.016	53.335116
1199.177	52.964468
1199.338	53.197167
1199.498	53.409712
1199.659	54.169393
1199.820	54.514602
1199.980	54.525254
1200.141	55.044078
1200.301	55.549453
1200.462	55.817208
1200.622	55.763994
1200.783	56.145074
1200.943	56.760306
1201.104	57.574216
1201.264	57.992503
1201.424	57.496758
1201.585	57.115459
1201.745	57.232520
1201.906	57.333172
1202.066	57.727153
1202.226	57.895660
1202.386	58.030640
1202.547	57.899890
1202.707	57.477982
1202.867	57.159895
1203.027	56.670873
1203.188	56.523990
1203.348	56.172354
1203.508	55.390421
1203.668	55.268844
1203.828	54.922008
1203.988	54.546275
1204.148	54.555773
1204.308	54.710317
1204.468	54.981964
1204.628	54.815166
1204.788	55.109421
1204.948	55.400884
1205.108	55.897326
1205.268	56.659249
1205.428	56.513087
1205.588	56.110940
1205.748	56.465821
1205.908	56.836321
1206.068	56.458254
1206.228	56.710064
1206.387	56.648378
1206.547	56.255257
1206.707	56.013691
1206.867	56.000668
1207.026	55.898029
1207.186	55.902892
1207.346	55.849979
1207.505	55.822721
1207.665	55.466197
1207.825	55.674692
1207.984	55.730820
1208.144	55.969377
1208.303	56.070400
1208.463	56.422070
1208.622	57.084494
1208.782	57.690386
1208.941	57.835460
1209.101	58.208943
1209.260	58.198965
1209.420	58.595796
1209.579	58.518827
1209.739	58.335905
1209.898	58.476673
1210.057	59.213793
1210.217	59.334842
1210.376	58.479358
1210.535	57.717213
1210.694	57.741052
1210.854	58.171831
1211.013	58.261427
1211.172	57.927450
1211.331	58.176274
1211.490	58.540616
1211.650	58.753322
1211.809	58.349063
1211.968	57.784171
1212.127	57.825684
1212.286	58.174879
1212.445	58.544203
1212.604	58.627309
1212.763	58.695630
1212.922	58.994611
1213.081	59.594398
1213.240	59.532489
1213.399	59.262438
1213.558	59.077225
1213.717	59.472171
1213.876	59.665331
1214.035	59.534944
1214.194	59.339912
1214.352	58.896434
1214.511	59.033592
1214.670	59.200941
1214.829	58.779817
1214.988	58.879022
1215.146	59.001652
1215.305	59.572805
1215.464	60.161581
1215.622	60.183140
1215.781	59.823701
1215.940	59.585048
1216.098	59.794604
1216.257	59.621320
1216.415	59.278881
1216.574	59.357302
1216.732	59.665489
1216.891	59.235498
1217.049	58.466308
1217.208	58.022070
1217.366	58.370733
1217.525	59.003775
1217.683	59.321776
1217.842	59.467296
1218.000	59.565645
1218.158	60.107940
1218.317	60.155733
1218.475	59.574748
1218.633	60.161520
1218.792	61.135209
1218.950	61.395004
1219.108	61.197700
1219.266	60.963564
1219.425	60.806151
1219.583	60.849771
1219.741	61.218694
1219.899	61.251551
1220.057	61.233177
1220.215	61.508906
1220.373	61.680000
1220.531	61.210713
1220.689	61.412416
1220.847	61.150565
1221.005	60.626916
1221.163	60.611177
1221.322	60.384470
1221.479	59.935171
1221.637	59.627619
1221.795	59.788047
1221.953	59.716366
1222.111	59.712930
1222.269	59.922057
1222.427	59.176990
1222.584	59.474445
1222.742	59.806048
1222.900	59.812925
1223.058	60.377538
1223.216	61.055555
1223.373	61.414575
1223.531	61.380747
1223.689	61.441165
1223.846	61.171104
1224.004	60.848195
1224.162	61.276254
1224.319	61.352206
1224.477	61.502211
1224.634	61.315773
1224.792	61.171236
1224.949	60.644152
1225.107	60.009041
1225.264	60.032130
1225.422	59.852427
1225.579	59.839532
1225.737	60.418571
1225.894	60.797986
1226.052	61.125575
1226.209	61.327931
1226.366	61.842251
1226.523	62.050532
1226.681	62.156481
1226.838	62.670789
1226.995	62.926057
1227.153	63.212008
1227.310	63.465439
1227.467	63.574173
1227.624	63.710570
1227.781	63.531660
1227.938	64.068909
1228.096	64.636984
1228.253	64.362516
1228.410	64.048567
1228.567	64.020765
1228.724	63.975569
1228.881	64.142746
1229.038	64.538660
1229.195	64.433922
1229.352	64.245617
1229.509	64.010379
1229.666	63.858107
1229.823	63.996162
1229.980	64.132972
1230.136	64.749200
1230.293	64.979699
1230.450	65.460094
1230.607	66.007057
1230.764	65.692223
1230.921	65.405532
1231.077	65.436721
1231.234	65.903240
1231.391	65.872780
1231.547	65.859778
1231.704	66.143138
1231.861	66.362128
1232.018	66.610720
1232.174	66.736777
1232.331	66.774218
1232.487	66.434060
1232.644	66.207286
1232.800	65.774624
1232.957	65.583848
1233.113	65.735216
1233.270	65.495291
1233.426	65.469709
1233.583	65.283243
1233.739	65.423239
1233.896	65.134538
1234.052	64.568147
1234.208	65.230274
1234.365	66.096115
1234.521	67.043866
1234.677	67.344861
1234.834	66.879482
1234.990	66.861457
1235.146	66.700350
1235.302	66.843640
1235.459	67.188725
1235.615	67.656817
1235.771	67.978039
1235.927	68.202330
1236.083	67.875828
1236.239	67.516172
1236.396	67.658180
1236.552	68.116250
1236.708	67.997386
1236.864	67.794919
1237.020	67.986497
1237.176	67.284333
1237.332	66.644481
1237.488	66.901324
1237.644	66.697332
1237.799	67.103778
1237.955	67.721498
1238.111	68.198700
1238.267	68.313111
1238.423	69.100606
1238.579	69.761422
1238.734	69.830439
1238.890	70.250286
1239.046	70.535009
1239.202	70.560469
1239.357	70.577246
1239.513	70.345890
1239.669	69.871128
1239.824	69.481915
1239.980	69.445285
1240.136	68.665126
1240.291	68.183854
1240.447	67.975730
1240.603	68.653919
1240.758	69.139808
1240.914	68.778866
1241.069	68.868504
1241.225	69.604622
1241.380	70.067277
1241.535	69.951973
1241.691	70.186952
1241.846	70.112778
1242.002	69.427248
1242.157	69.274944
1242.313	68.158104
1242.468	67.280782
1242.623	67.250255
1242.778	66.842917
1242.934	65.912311
1243.089	65.916014
1243.244	65.525105
1243.399	64.743980
1243.554	64.618607
1243.710	66.026713
1243.865	65.771638
1244.020	65.882569
1244.175	65.989842
1244.330	66.212372
1244.485	67.149878
1244.640	67.424327
1244.795	67.471657
1244.950	68.333120
1245.105	69.367354
1245.260	70.438577
1245.415	70.155314
1245.570	70.441328
1245.725	70.422323
1245.880	70.865664
1246.035	70.942639
1246.190	70.220401
1246.345	70.161087
1246.499	69.343290
1246.654	67.872811
1246.809	67.601576
1246.964	66.567015
1247.118	66.406939
1247.273	67.254930
1247.428	67.830629
1247.583	67.496494
1247.737	67.914470
1247.892	68.916652
1248.047	69.645668
1248.201	70.235076
1248.356	71.515425
1248.510	71.754892
1248.665	73.129863
1248.819	73.419453
1248.974	72.758462
1249.128	72.352001
1249.283	72.414758
1249.437	71.820532
1249.592	71.999879
1249.746	71.704211
1249.900	71.881985
1250.055	71.916542
1250.209	72.160016
1250.363	71.307621
1250.518	70.774616
1250.672	71.037864
1250.826	70.777883
1250.981	71.439618
1251.135	71.848447
1251.289	70.707189
1251.443	70.522188
1251.597	70.175712
1251.751	69.767527
1251.906	69.061111
1252.060	68.635328
1252.214	68.487920
1252.368	68.723538
1252.522	69.221495
1252.676	68.117982
1252.830	67.499333
1252.984	67.336230
1253.138	66.638264
1253.292	67.138912
1253.446	68.434169
1253.600	68.840506
1253.754	69.541372
1253.907	69.930880
1254.061	69.405135
1254.215	69.365696
1254.369	69.704931
1254.523	69.600342
1254.677	70.023679
1254.830	70.653315
1254.984	71.095497
1255.138	71.268641
1255.292	71.265644
1255.445	71.320221
1255.599	72.386566
1255.752	72.326520
1255.906	72.412436
1256.060	72.887406
1256.213	73.414688
1256.367	73.692923
1256.520	74.466545
1256.674	74.545342
1256.827	73.851057
1256.981	73.923194
1257.134	74.434684
1257.288	74.756700
1257.441	75.944140
1257.594	75.807112
1257.748	75.747276
1257.901	76.502466
1258.055	76.871749
1258.208	76.382779
1258.361	75.120890
1258.515	74.571663
1258.668	73.939981
1258.821	73.554620
1258.974	72.942696
1259.127	72.672030
1259.281	72.534791
1259.434	72.585081
1259.587	71.453092
1259.740	71.997832
1259.893	72.795147
1260.046	73.734945
1260.199	74.298744
1260.352	75.271808
1260.505	75.595624
1260.658	75.767107
1260.811	75.270794
1260.964	75.241755
1261.117	75.282515
1261.270	76.425943
1261.423	75.378408
1261.576	75.203172
1261.729	75.436564
1261.882	74.512069
1262.035	74.084864
1262.188	73.697546
1262.340	73.298229
1262.493	74.512846
1262.646	75.311123
1262.798	75.304562
1262.951	75.053234
1263.104	75.551924
1263.257	75.167420
1263.409	74.868466
1263.562	75.875731
1263.714	76.359886
1263.867	77.351192
1264.020	78.055909
1264.172	77.394396
1264.325	77.830212
1264.477	78.462243
1264.630	78.380855
1264.782	78.884257
1264.935	79.411281
1265.087	78.698080
1265.240	77.543915
1265.392	77.761049
1265.544	78.089056
1265.697	77.303057
1265.849	77.065854
1266.001	75.851403
1266.154	74.803755
1266.306	75.279402
1266.458	74.312592
1266.610	73.371158
1266.762	74.161339
1266.915	75.160136
1267.067	74.751163
1267.219	73.099356
1267.371	73.495257
1267.523	73.636455
1267.675	74.479758
1267.828	75.013592
1267.979	75.237922
1268.132	75.109698
1268.284	75.116166
1268.436	74.062692
1268.588	74.615941
1268.740	74.676393
1268.891	75.059106
1269.043	74.662911
1269.195	74.300491
1269.347	74.041998
1269.499	75.185359
1269.651	74.872618
1269.803	75.504789
1269.955	75.626235
1270.106	76.794411
1270.258	76.172614
1270.410	75.971723
1270.562	76.861334
1270.713	77.058783
1270.865	76.839586
1271.017	76.487770
1271.168	75.006423
1271.320	74.602864
1271.471	74.763391
1271.623	75.571765
1271.775	75.760935
1271.926	75.621568
1272.078	76.186729
1272.229	76.333820
1272.381	77.204359
1272.532	78.045307
1272.684	78.879996
1272.835	80.010529
1272.986	80.626047
1273.138	81.116287
1273.289	82.295864
1273.440	83.838812
1273.592	85.261758
1273.743	86.513686
1273.894	86.474661
1274.046	85.576663
1274.197	86.151791
1274.348	86.817310
1274.500	87.210770
1274.651	88.260659
1274.802	88.674159
>>>>>>>>>> END of Data <<<<<<<<<<
