Date	2025年07月03日木曜日 10時00分23秒
Spectrometers	SR401765
ダーク	使用
リファレンス	使用
積分時間[msec]	300
平均回数	1
ｽﾑｰｼﾞﾝｸﾞ	5
Electrical Dark	USE
ピクセル数	3648
計測モード	反射率
保存開始波長[nm]	598.495
保存終了波長[nm]	1274.802
保存ﾋﾟｯﾁ波長[nm]	全波長

>>>>>>>>>> Data Start <<<<<<<<<<<<
598.495	0.000000
598.713	0.000000
598.931	0.000000
599.148	0.000000
599.366	-222.081845
599.584	21.932860
599.802	136.515843
600.020	0.000000
600.238	0.000000
600.455	0.000000
600.673	0.000000
600.891	18.302111
601.109	16.322208
601.326	17.106851
601.544	17.498291
601.762	17.518014
601.979	17.193369
602.197	17.101881
602.415	17.372763
602.632	17.546689
602.850	17.799096
603.067	17.956775
603.285	18.118013
603.502	18.264747
603.720	18.306561
603.938	18.484931
604.155	18.657863
604.372	18.776776
604.590	19.024127
604.807	19.103703
605.025	19.247493
605.242	19.192411
605.460	19.123254
605.677	19.103745
605.894	19.125005
606.112	19.302974
606.329	19.505427
606.546	19.676375
606.764	19.677500
606.981	19.677601
607.198	19.529317
607.415	19.538431
607.633	19.630096
607.850	19.875290
608.067	20.235661
608.284	20.609719
608.501	20.917030
608.718	21.048127
608.935	21.182167
609.153	21.540088
609.370	21.771025
609.587	22.213898
609.804	22.371444
610.021	22.519252
610.238	22.524985
610.455	22.565711
610.672	22.593017
610.889	22.574263
611.106	22.825946
611.323	22.918653
611.540	22.777012
611.756	22.769224
611.973	22.803613
612.190	23.046546
612.407	23.357617
612.624	23.748575
612.841	24.028562
613.057	24.206556
613.274	24.330441
613.491	24.271796
613.708	24.459542
613.925	24.830772
614.141	25.111356
614.358	25.509285
614.575	25.843344
614.791	26.123941
615.008	26.390683
615.225	26.564775
615.441	26.820093
615.658	27.084220
615.874	27.414882
616.091	27.767938
616.307	28.034349
616.524	28.244854
616.740	28.411578
616.957	28.606857
617.173	28.803282
617.390	28.950795
617.606	29.131592
617.823	29.276650
618.039	29.453209
618.256	29.538507
618.472	29.569934
618.688	29.745561
618.905	29.993599
619.121	30.361136
619.337	30.782255
619.554	31.185941
619.770	31.647309
619.986	32.148489
620.202	32.567227
620.419	32.743859
620.635	33.034846
620.851	33.499331
621.067	33.982629
621.283	34.369948
621.499	34.474528
621.716	34.535981
621.932	34.561947
622.148	34.488938
622.364	34.518294
622.580	34.667908
622.796	35.185921
623.012	35.509020
623.228	35.580210
623.444	35.504390
623.660	35.645674
623.876	36.020068
624.092	36.278937
624.308	36.520942
624.524	36.916983
624.740	37.276873
624.955	37.495211
625.171	37.545464
625.387	37.776159
625.603	38.118354
625.819	38.586126
626.034	38.680847
626.250	38.532718
626.466	38.643881
626.682	38.983942
626.897	39.179465
627.113	39.305789
627.329	39.670413
627.544	40.110445
627.760	40.555958
627.976	40.971065
628.191	41.226532
628.407	41.636294
628.623	42.201596
628.838	42.614240
629.054	42.700174
629.269	42.839350
629.485	43.180060
629.700	43.501283
629.916	43.634873
630.131	43.576821
630.347	43.710968
630.562	43.880415
630.777	43.884959
630.993	43.946170
631.208	44.030963
631.424	44.274809
631.639	44.434926
631.854	44.513917
632.070	44.540748
632.285	44.659650
632.500	44.982880
632.715	45.042134
632.931	45.314950
633.146	45.776143
633.361	45.985972
633.576	46.106741
633.791	46.225064
634.007	46.520076
634.222	46.882017
634.437	47.418192
634.652	48.016661
634.867	48.294776
635.082	48.665139
635.297	48.742123
635.512	48.779344
635.727	49.027440
635.942	49.430128
636.157	49.918811
636.372	50.235395
636.587	50.292440
636.802	50.088941
637.017	49.928825
637.232	50.007954
637.447	50.234578
637.662	50.548494
637.876	50.863096
638.091	51.200499
638.306	51.512544
638.521	51.695617
638.736	51.826815
638.951	52.037448
639.165	52.414957
639.380	52.537216
639.595	52.715801
639.809	52.896832
640.024	53.091188
640.239	53.335524
640.453	53.474778
640.668	53.510054
640.883	53.602687
641.097	53.832642
641.312	54.207977
641.526	54.493746
641.741	54.809620
641.955	54.926361
642.170	54.858657
642.384	54.830808
642.599	54.953169
642.813	54.948625
643.028	54.900960
643.242	54.950637
643.457	55.199174
643.671	55.284440
643.885	55.217873
644.100	55.383396
644.314	55.861406
644.528	56.292758
644.743	56.790908
644.957	57.216046
645.171	57.765131
645.386	58.273500
645.600	58.497032
645.814	58.511282
646.028	58.807421
646.242	59.411697
646.457	59.677383
646.671	59.568130
646.885	59.501017
647.099	59.377444
647.313	59.326875
647.527	59.338510
647.741	59.388774
647.955	59.633319
648.169	59.693915
648.383	59.411703
648.597	58.952539
648.811	58.660668
649.025	58.501855
649.239	58.691082
649.453	59.039292
649.667	59.172905
649.881	59.094013
650.095	58.996514
650.309	58.837247
650.523	58.974631
650.737	59.328086
650.950	59.736486
651.164	60.286845
651.378	60.773600
651.592	61.092753
651.805	61.215881
652.019	61.379500
652.233	61.487978
652.447	61.661946
652.660	62.008703
652.874	62.129287
653.088	61.939012
653.301	61.724019
653.515	61.563763
653.728	61.669310
653.942	61.799901
654.156	62.043522
654.369	62.336046
654.583	62.652010
654.796	63.101579
655.010	63.442437
655.223	63.790367
655.437	64.219703
655.650	64.660603
655.863	64.968972
656.077	65.115643
656.290	65.119241
656.504	65.095594
656.717	64.981983
656.930	65.067026
657.144	65.106228
657.357	65.217120
657.570	65.408587
657.783	65.541547
657.997	65.655377
658.210	65.642688
658.423	65.633383
658.636	65.668087
658.849	65.726940
659.063	65.854379
659.276	66.072876
659.489	66.266950
659.702	66.314774
659.915	66.224895
660.128	66.275233
660.341	66.392795
660.554	66.537019
660.767	66.592723
660.980	66.524292
661.193	66.418199
661.406	66.282600
661.619	66.065384
661.832	65.896296
662.045	65.648803
662.258	65.621828
662.471	65.710347
662.684	65.833885
662.897	66.012961
663.110	66.087212
663.322	66.124402
663.535	66.312585
663.748	66.769979
663.961	67.135116
664.174	67.204429
664.386	67.195940
664.599	67.157454
664.812	67.084526
665.024	67.137544
665.237	67.349329
665.450	67.879371
665.662	68.727825
665.875	69.373164
666.088	69.412598
666.300	69.348885
666.513	69.652233
666.725	70.152047
666.938	70.423864
667.150	70.629501
667.363	70.663298
667.575	70.540480
667.788	70.428158
668.000	70.194965
668.213	69.991653
668.425	70.037871
668.638	70.172735
668.850	70.307352
669.062	70.410901
669.275	70.685988
669.487	70.809012
669.699	70.742148
669.912	70.712903
670.124	70.527088
670.336	70.288689
670.548	69.861453
670.761	69.571287
670.973	69.432134
671.185	69.198148
671.397	68.990825
671.609	68.774115
671.822	68.911028
672.034	69.075793
672.246	69.266567
672.458	69.500151
672.670	69.470935
672.882	69.693787
673.094	69.982933
673.306	70.251749
673.518	70.607592
673.730	71.032725
673.942	71.464047
674.154	71.629922
674.366	71.751542
674.578	71.884024
674.790	72.006799
675.002	72.342601
675.214	72.436040
675.425	72.432736
675.637	72.592345
675.849	72.639899
676.061	72.644683
676.273	72.532528
676.484	72.395990
676.696	72.405788
676.908	72.476748
677.120	72.528079
677.331	72.517867
677.543	72.812543
677.755	73.294089
677.966	73.536253
678.178	73.660292
678.389	73.805399
678.601	73.896411
678.813	73.819948
679.024	73.626054
679.236	73.485703
679.447	73.442223
679.659	73.410356
679.870	73.211356
680.082	72.915826
680.293	72.688929
680.505	72.617812
680.716	72.364581
680.927	72.347025
681.139	72.651501
681.350	72.998871
681.562	73.125250
681.773	73.049140
681.984	72.794461
682.196	72.471302
682.407	72.129123
682.618	71.823710
682.829	71.550693
683.041	71.442375
683.252	71.236174
683.463	71.062186
683.674	71.114803
683.885	71.192824
684.097	71.159417
684.308	71.249120
684.519	71.561488
684.730	72.001013
684.941	72.568834
685.152	73.010640
685.363	73.329265
685.574	73.672047
685.785	73.762387
685.996	73.586065
686.207	73.411176
686.418	73.479525
686.629	73.694616
686.840	73.863732
687.051	73.785609
687.262	73.412518
687.473	73.111818
687.684	73.170690
687.894	73.103177
688.105	72.931243
688.316	72.853330
688.527	72.851723
688.738	72.937959
688.948	72.956960
689.159	72.616113
689.370	72.308845
689.580	72.113073
689.791	71.839365
690.002	71.347945
690.212	71.128190
690.423	71.290897
690.634	71.467995
690.844	71.573775
691.055	71.659915
691.266	71.951139
691.476	72.696808
691.687	73.436878
691.897	73.819981
692.108	74.313272
692.318	74.904378
692.529	75.199566
692.739	75.359839
692.949	75.599238
693.160	75.940017
693.370	76.098857
693.581	76.038685
693.791	75.912704
694.001	75.748422
694.212	75.849325
694.422	75.861062
694.632	75.649178
694.843	75.379544
695.053	75.055754
695.263	74.744397
695.473	74.490934
695.683	74.671516
695.894	74.804224
696.104	74.606925
696.314	74.537600
696.524	74.576644
696.734	74.500137
696.944	74.503765
697.154	74.619636
697.365	74.487260
697.575	74.326136
697.785	74.221721
697.995	73.937523
698.205	73.959215
698.415	74.108987
698.625	74.122358
698.834	74.203733
699.044	74.332578
699.254	74.310467
699.464	74.457024
699.674	74.871421
699.884	75.004999
700.094	75.015746
700.304	74.822392
700.513	74.198754
700.723	73.578418
700.933	73.260576
701.143	72.901710
701.353	72.484225
701.562	72.217888
701.772	71.916256
701.982	71.618992
702.191	71.457063
702.401	71.328394
702.611	71.356182
702.820	71.593854
703.030	72.002323
703.239	72.229578
703.449	72.409036
703.659	72.904400
703.868	73.580582
704.078	74.258998
704.287	74.868111
704.497	75.342848
704.706	75.466350
704.916	75.473477
705.125	75.708632
705.334	75.920248
705.544	76.029459
705.753	75.981360
705.962	75.644879
706.172	75.142217
706.381	74.827739
706.590	74.615517
706.800	74.464433
707.009	74.513779
707.218	74.665665
707.428	74.628308
707.637	74.259460
707.846	74.133818
708.055	74.594335
708.264	75.327236
708.474	76.064635
708.683	76.318967
708.892	76.503378
709.101	76.733782
709.310	76.883257
709.519	76.805117
709.728	76.711190
709.937	77.069320
710.146	77.351593
710.355	77.185344
710.564	76.680414
710.773	76.147852
710.982	75.832785
711.191	75.629966
711.400	75.597388
711.609	75.824462
711.818	76.143477
712.027	76.395674
712.235	76.482193
712.444	76.320827
712.653	76.054571
712.862	75.913304
713.071	75.532729
713.279	75.095138
713.488	74.741041
713.697	74.395533
713.906	74.113889
714.114	74.019044
714.323	73.789635
714.532	73.603130
714.740	73.519793
714.949	73.503611
715.157	73.768980
715.366	74.199660
715.575	74.582528
715.783	74.859419
715.992	75.020221
716.200	74.801134
716.409	74.340164
716.617	74.002990
716.826	73.606320
717.034	73.366008
717.242	73.284110
717.451	73.061394
717.659	73.098721
717.868	73.287977
718.076	73.371282
718.284	73.250926
718.493	73.160816
718.701	73.068399
718.909	73.232338
719.118	73.594987
719.326	73.624755
719.534	73.395549
719.742	73.199146
719.951	72.897773
720.159	72.701871
720.367	72.674964
720.575	72.741951
720.783	72.961322
720.991	73.182405
721.199	73.162946
721.408	73.144871
721.616	73.537757
721.824	74.019815
722.032	74.070294
722.240	73.988693
722.448	73.959558
722.656	73.902369
722.864	73.883067
723.072	73.673466
723.280	73.430597
723.487	73.104739
723.695	72.717142
723.903	72.237466
724.111	71.750375
724.319	71.727710
724.527	72.005497
724.735	72.410877
724.942	72.637652
725.150	72.482311
725.358	72.397473
725.566	72.499826
725.773	72.853250
725.981	73.081726
726.189	73.095245
726.396	73.115491
726.604	73.080882
726.812	72.850049
727.019	72.141879
727.227	71.454034
727.435	71.378164
727.642	71.627737
727.850	71.723089
728.057	71.247928
728.265	70.837990
728.472	70.792530
728.680	70.834119
728.887	70.733411
729.095	70.577463
729.302	70.609723
729.509	70.713595
729.717	70.760988
729.924	70.754365
730.132	70.744970
730.339	71.159490
730.546	71.632535
730.753	71.902770
730.961	72.065389
731.168	72.117694
731.375	72.006111
731.583	72.041689
731.790	72.323694
731.997	72.654244
732.204	72.897870
732.411	72.932416
732.618	72.631627
732.826	72.062901
733.033	71.654407
733.240	71.437214
733.447	71.335264
733.654	71.351112
733.861	71.296744
734.068	71.035223
734.275	70.572625
734.482	70.011668
734.689	69.711782
734.896	69.764171
735.103	70.049916
735.310	70.185065
735.517	70.373037
735.724	70.866786
735.931	71.662105
736.137	72.239667
736.344	72.430507
736.551	72.470420
736.758	72.501135
736.965	72.756013
737.171	73.118957
737.378	73.323170
737.585	73.450900
737.792	73.369968
737.998	73.047359
738.205	72.437916
738.412	71.711219
738.618	71.346292
738.825	71.363369
739.032	71.646777
739.238	71.871012
739.445	71.910134
739.651	71.722172
739.858	71.339289
740.064	70.867576
740.271	70.499311
740.477	70.320344
740.684	70.389599
740.890	70.421459
741.097	70.230316
741.303	69.639424
741.510	69.103216
741.716	68.687223
741.922	68.430207
742.129	68.389169
742.335	68.394061
742.541	68.183231
742.748	67.994934
742.954	68.034342
743.160	68.127434
743.366	68.160880
743.573	68.142268
743.779	67.938987
743.985	67.780673
744.191	67.690970
744.397	67.737632
744.604	67.937415
744.810	68.209672
745.016	68.522213
745.222	68.642679
745.428	68.614454
745.634	68.592632
745.840	68.703791
746.046	68.661560
746.252	68.517790
746.458	68.439038
746.664	68.332205
746.870	68.147276
747.076	67.707086
747.282	67.192346
747.488	66.838562
747.694	66.660962
747.900	66.794394
748.105	67.169442
748.311	67.521825
748.517	67.676547
748.723	67.784466
748.929	67.712867
749.134	67.547527
749.340	67.480433
749.546	67.386551
749.752	67.244049
749.957	66.906305
750.163	66.281768
750.369	65.552291
750.574	65.110157
750.780	64.845330
750.985	64.749815
751.191	64.887647
751.397	65.101188
751.602	65.523197
751.808	65.743012
752.013	65.723763
752.219	65.837583
752.424	65.910961
752.630	65.684731
752.835	65.377562
753.041	65.124860
753.246	64.744307
753.451	64.255404
753.657	63.880430
753.862	63.505029
754.067	63.084026
754.273	62.751632
754.478	62.458603
754.683	62.352968
754.889	62.619806
755.094	62.898525
755.299	62.962482
755.504	62.895072
755.710	62.865600
755.915	62.860888
756.120	62.624412
756.325	62.408598
756.530	62.207901
756.735	61.880709
756.940	61.551797
757.146	61.286587
757.351	61.073715
757.556	61.160857
757.761	61.432656
757.966	61.612207
758.171	61.487039
758.376	61.321871
758.581	61.107117
758.786	60.878128
758.990	60.774520
759.195	60.734557
759.400	60.619496
759.605	60.327622
759.810	59.959063
760.015	59.622761
760.220	59.128562
760.424	58.810144
760.629	58.657122
760.834	58.571337
761.039	58.529274
761.244	58.590038
761.448	58.487608
761.653	58.097025
761.858	57.782828
762.062	57.477104
762.267	57.063313
762.472	56.861151
762.676	56.808750
762.881	56.867047
763.085	57.032753
763.290	57.084389
763.494	56.865780
763.699	56.739619
763.903	56.840028
764.108	56.894814
764.312	56.897972
764.517	56.856368
764.721	56.754417
764.926	56.546613
765.130	56.102021
765.335	55.722592
765.539	55.484920
765.743	55.332333
765.948	54.945781
766.152	54.456931
766.356	54.098137
766.560	53.837192
766.765	53.715056
766.969	53.585985
767.173	53.411116
767.377	53.305962
767.582	53.150583
767.786	52.902047
767.990	52.634692
768.194	52.582627
768.398	52.586720
768.602	52.360199
768.806	52.070352
769.010	51.858333
769.215	51.530353
769.419	51.271950
769.623	51.265093
769.827	51.215879
770.031	50.935168
770.234	50.495226
770.438	50.020928
770.642	49.606238
770.846	49.501783
771.050	49.322335
771.254	49.030921
771.458	49.062965
771.662	49.077995
771.866	48.756461
772.069	48.304468
772.273	48.068913
772.477	47.951988
772.681	47.657509
772.885	47.340443
773.088	46.837903
773.292	46.519477
773.496	46.190650
773.699	45.591073
773.903	45.051131
774.107	44.832380
774.310	44.670356
774.514	44.397170
774.717	44.292804
774.921	44.437654
775.124	44.698759
775.328	44.983301
775.531	45.078890
775.735	45.111748
775.938	45.102348
776.142	44.890074
776.345	44.503083
776.549	44.196988
776.752	44.040547
776.956	43.817323
777.159	43.389871
777.362	42.706989
777.566	42.040348
777.769	41.492961
777.972	40.900208
778.176	40.434066
778.379	40.064994
778.582	39.837765
778.785	39.665712
778.989	39.351982
779.192	38.975639
779.395	38.730161
779.598	38.569449
779.801	38.344224
780.004	37.973661
780.207	37.756190
780.411	37.552580
780.614	37.408037
780.817	37.016309
781.020	36.680985
781.223	36.397549
781.426	36.083573
781.629	35.687436
781.832	35.257742
782.035	34.786925
782.238	34.393295
782.440	33.969615
782.643	33.618496
782.846	33.197491
783.049	32.773751
783.252	32.238784
783.455	31.795895
783.658	31.422436
783.860	31.044102
784.063	30.725752
784.266	30.640274
784.469	30.530509
784.671	30.510444
784.874	30.521531
785.077	30.552818
785.279	30.635697
785.482	30.652082
785.685	30.604385
785.887	30.506578
786.090	30.423574
786.293	30.210267
786.495	29.875000
786.698	29.468386
786.900	28.845383
787.103	28.201959
787.305	27.509787
787.508	26.927454
787.710	26.351236
787.913	25.779464
788.115	25.310124
788.317	24.848047
788.520	24.483960
788.722	24.062144
788.924	23.746157
789.127	23.633115
789.329	23.404940
789.531	23.236013
789.734	23.055476
789.936	22.989834
790.138	22.846940
790.340	22.719274
790.543	22.479335
790.745	22.200592
790.947	21.938442
791.149	21.497928
791.351	20.903620
791.553	20.337076
791.756	19.908632
791.958	19.511215
792.160	19.069278
792.362	18.744253
792.564	18.275828
792.766	17.929997
792.968	17.652106
793.170	17.340670
793.372	17.144663
793.574	16.880919
793.776	16.803679
793.978	16.572098
794.180	16.347153
794.381	16.254573
794.583	16.130868
794.785	16.018729
794.987	15.845998
795.189	15.673632
795.391	15.556527
795.592	15.393732
795.794	15.301522
795.996	15.157371
796.198	14.979469
796.399	14.774532
796.601	14.500098
796.803	14.270313
797.004	14.014578
797.206	13.848019
797.407	13.628468
797.609	13.353273
797.811	13.163329
798.012	12.993958
798.214	12.803188
798.415	12.572222
798.617	12.389706
798.818	12.115902
799.020	11.826443
799.221	11.557652
799.423	11.208814
799.624	10.949961
799.826	10.744380
800.027	10.698672
800.228	10.705735
800.430	10.445327
800.631	10.413069
800.832	10.308045
801.034	10.217035
801.235	10.251783
801.436	10.212887
801.637	10.254897
801.839	10.304453
802.040	10.284353
802.241	10.099203
802.442	9.912387
802.643	9.875059
802.844	9.664501
803.046	9.530425
803.247	9.484242
803.448	9.421192
803.649	9.446262
803.850	9.395579
804.051	9.407305
804.252	9.533891
804.453	9.604353
804.654	9.604943
804.855	9.644461
805.056	9.733178
805.257	9.715828
805.458	9.730854
805.659	9.672426
805.859	9.615752
806.060	9.547506
806.261	9.459103
806.462	9.281057
806.663	9.195097
806.864	9.266884
807.064	9.360884
807.265	9.445980
807.466	9.543950
807.667	9.615551
807.867	9.660709
808.068	9.841578
808.269	9.997004
808.469	10.129081
808.670	10.337807
808.870	10.450507
809.071	10.389541
809.272	10.295975
809.472	10.215291
809.673	10.262906
809.873	10.304441
810.074	10.380795
810.274	10.282970
810.475	10.380969
810.675	10.436733
810.876	10.516218
811.076	10.668187
811.276	10.910886
811.477	11.158754
811.677	11.363463
811.878	11.535963
812.078	11.779876
812.278	11.909565
812.479	12.112035
812.679	12.189455
812.879	12.403350
813.079	12.517345
813.280	12.701734
813.480	12.882972
813.680	13.000089
813.880	13.143025
814.080	13.376118
814.280	13.503088
814.480	13.719326
814.681	14.013372
814.881	14.298506
815.081	14.502871
815.281	14.743157
815.481	14.971074
815.681	15.196518
815.881	15.493132
816.081	15.858192
816.281	15.920579
816.481	16.019692
816.681	16.115967
816.880	16.316455
817.080	16.613497
817.280	16.828531
817.480	16.991329
817.680	17.163332
817.880	17.450909
818.080	17.777852
818.279	17.885585
818.479	18.123270
818.679	18.423940
818.879	18.767617
819.078	18.986020
819.278	18.995133
819.478	19.093997
819.677	19.377178
819.877	19.697689
820.077	19.935777
820.276	20.082356
820.476	20.475355
820.675	20.876874
820.875	21.317798
821.074	21.639151
821.274	21.995274
821.473	22.434888
821.673	22.702770
821.872	22.860492
822.072	22.997587
822.271	23.047622
822.471	23.196796
822.670	23.191805
822.869	23.250986
823.069	23.448430
823.268	23.643448
823.467	23.800588
823.667	24.025490
823.866	24.333425
824.065	24.649700
824.265	24.779172
824.464	25.019195
824.663	25.356550
824.862	25.841816
825.061	26.257531
825.261	26.317320
825.460	26.429698
825.659	26.449088
825.858	26.473430
826.057	26.594039
826.256	26.820092
826.455	27.112606
826.654	27.389227
826.853	27.545680
827.052	27.649123
827.251	28.016453
827.450	28.483426
827.649	28.958295
827.848	29.406525
828.047	29.854415
828.246	30.203066
828.445	30.320961
828.644	30.606415
828.843	30.927592
829.041	31.182448
829.240	31.457649
829.439	31.445175
829.638	31.320493
829.836	31.270026
830.035	31.449529
830.234	31.672224
830.433	32.085957
830.631	32.659894
830.830	33.207400
831.029	33.754766
831.227	34.275757
831.426	34.722969
831.624	35.195307
831.823	35.749256
832.022	36.186764
832.220	36.584718
832.419	37.050288
832.617	37.365820
832.816	37.800507
833.014	38.109758
833.213	38.106960
833.411	38.142429
833.609	38.279441
833.808	38.432612
834.006	38.539247
834.205	38.815808
834.403	39.075058
834.601	39.075893
834.800	39.127285
834.998	39.016702
835.196	38.687992
835.394	38.543772
835.593	38.459996
835.791	38.504990
835.989	38.667260
836.187	39.010115
836.385	39.333483
836.584	39.492979
836.782	39.744364
836.980	39.882967
837.178	40.020327
837.376	40.398841
837.574	40.703228
837.772	41.029131
837.970	41.392238
838.168	41.816498
838.366	42.165547
838.564	42.518585
838.762	42.905373
838.960	43.222536
839.158	43.626578
839.356	44.044978
839.554	44.518153
839.752	45.128442
839.949	45.683083
840.147	46.014370
840.345	46.179374
840.543	46.201229
840.741	46.190510
840.938	46.282087
841.136	46.589476
841.334	46.907756
841.532	47.120241
841.729	47.089154
841.927	46.994263
842.125	47.160624
842.322	47.457926
842.520	47.694068
842.718	47.998357
842.915	48.093166
843.113	48.175525
843.310	48.162285
843.508	48.145967
843.705	47.956695
843.903	47.779969
844.100	47.787994
844.298	47.637678
844.495	47.566929
844.693	47.771524
844.890	48.270150
845.087	48.839025
845.285	49.199033
845.482	49.453176
845.679	49.420936
845.877	49.537121
846.074	49.768748
846.271	49.921286
846.469	50.055360
846.666	49.997911
846.863	49.754601
847.060	49.555411
847.257	49.507037
847.455	49.606636
847.652	49.669473
847.849	49.839885
848.046	49.972122
848.243	50.165289
848.440	50.459312
848.637	50.788164
848.834	51.021445
849.031	51.101856
849.228	50.881957
849.425	51.006018
849.622	51.309692
849.819	51.749992
850.016	52.017611
850.213	52.130399
850.410	52.346185
850.607	52.650520
850.804	52.839424
851.001	52.978915
851.198	53.356844
851.394	53.871974
851.591	54.086524
851.788	54.094106
851.985	53.981354
852.181	53.903533
852.378	54.043097
852.575	54.149120
852.772	54.039812
852.968	53.990932
853.165	54.108780
853.362	54.106803
853.558	54.284931
853.755	54.546135
853.951	55.035014
854.148	55.719534
854.345	56.270230
854.541	57.022513
854.738	57.630172
854.934	57.917591
855.131	57.902967
855.327	57.948901
855.523	58.035681
855.720	57.899293
855.916	57.345627
856.113	56.693026
856.309	56.036853
856.505	55.745292
856.702	55.456015
856.898	55.217494
857.094	55.134544
857.291	55.221294
857.487	55.223219
857.683	55.202526
857.879	54.983671
858.076	54.999557
858.272	54.955613
858.468	54.923992
858.664	55.044353
858.860	55.098430
859.056	55.248016
859.253	55.393011
859.449	55.774548
859.645	56.292958
859.841	56.817109
860.037	57.095687
860.233	57.306173
860.429	57.609033
860.625	57.765929
860.821	57.874223
861.017	57.989759
861.213	57.866157
861.409	57.785587
861.604	57.629540
861.800	57.410001
861.996	57.012267
862.192	56.940158
862.388	57.012588
862.584	57.046935
862.779	57.280066
862.975	57.424522
863.171	57.519178
863.367	57.780062
863.562	58.201942
863.758	58.401452
863.954	58.587373
864.149	58.872636
864.345	59.023990
864.541	59.068804
864.736	59.175027
864.932	59.291237
865.127	59.643807
865.323	59.690939
865.518	59.609902
865.714	59.355560
865.910	59.225954
866.105	59.215112
866.300	59.558152
866.496	59.944182
866.691	60.072880
866.887	59.941351
867.082	59.701091
867.277	59.489498
867.473	59.251763
867.668	59.140271
867.864	59.010520
868.059	58.846596
868.254	58.560686
868.449	58.132134
868.645	57.758820
868.840	57.571477
869.035	57.588965
869.230	57.706905
869.425	57.581495
869.621	57.698186
869.816	57.836961
870.011	58.187754
870.206	58.784234
870.401	59.469149
870.596	59.953447
870.791	60.356018
870.986	60.899340
871.181	61.325520
871.376	61.490873
871.571	61.160704
871.766	60.597439
871.961	60.145711
872.156	59.745754
872.351	59.351862
872.546	58.716355
872.741	58.159720
872.936	58.013255
873.130	58.169049
873.325	58.356718
873.520	58.457873
873.715	58.827396
873.910	59.756029
874.104	60.508556
874.299	61.187208
874.494	61.969889
874.688	62.674002
874.883	63.204572
875.078	63.393454
875.272	63.193953
875.467	63.048314
875.662	63.204821
875.856	63.457294
876.051	63.261129
876.245	63.058818
876.440	63.206120
876.634	63.356235
876.829	63.497197
877.023	63.706322
877.218	63.992167
877.412	64.456237
877.607	65.035880
877.801	65.306125
877.995	65.614562
878.190	66.060833
878.384	66.357819
878.578	66.173456
878.773	65.629830
878.967	64.956970
879.161	64.635213
879.356	64.568851
879.550	64.141294
879.744	63.687890
879.938	63.545652
880.133	63.376316
880.327	62.842304
880.521	62.220192
880.715	62.190068
880.909	62.121607
881.103	62.379444
881.297	62.446583
881.491	62.568505
881.685	63.190195
881.880	63.504649
882.073	63.462772
882.267	63.235310
882.461	63.380063
882.655	63.963561
882.849	64.198071
883.043	64.446205
883.237	64.689954
883.431	65.277463
883.625	66.012552
883.819	65.933870
884.013	65.768991
884.206	65.917536
884.400	65.959193
884.594	65.733202
884.788	65.494844
884.982	65.531592
885.175	66.129124
885.369	66.734457
885.563	66.967112
885.756	66.550236
885.950	66.609983
886.144	66.880236
886.337	67.205056
886.531	67.854505
886.724	68.593057
886.918	69.251562
887.112	69.365753
887.305	69.041146
887.499	68.867281
887.692	68.926393
887.885	69.054499
888.079	69.121174
888.272	68.892206
888.466	68.461794
888.659	68.276801
888.853	68.357441
889.046	68.178505
889.239	68.070408
889.433	67.845512
889.626	67.473188
889.819	67.126542
890.013	66.692874
890.206	66.360551
890.399	66.347270
890.592	66.542595
890.785	66.624248
890.979	66.656449
891.172	66.630314
891.365	66.340625
891.558	65.842812
891.751	65.382576
891.944	64.696797
892.137	64.410200
892.330	63.917272
892.524	63.777806
892.717	63.915801
892.910	64.405723
893.103	64.904216
893.296	65.623399
893.488	66.730205
893.681	67.951019
893.874	68.997944
894.067	69.781386
894.260	70.199598
894.453	70.670598
894.646	70.816534
894.839	70.567637
895.031	69.916532
895.224	69.118176
895.417	68.270649
895.610	67.499460
895.802	66.885770
895.995	66.651126
896.188	66.675004
896.381	66.772525
896.573	66.854698
896.766	66.859143
896.958	66.543600
897.151	66.297320
897.344	66.522490
897.536	66.549676
897.729	66.610274
897.921	67.026822
898.114	67.396979
898.306	67.658812
898.499	68.137218
898.691	68.749713
898.884	69.291460
899.076	69.943357
899.269	70.466957
899.461	70.738863
899.653	71.115175
899.846	71.741219
900.038	72.278947
900.230	72.152513
900.423	71.931821
900.615	71.311743
900.807	70.774361
901.000	70.831178
901.192	70.937628
901.384	71.001442
901.576	71.102778
901.768	71.217611
901.961	71.115288
902.153	70.859710
902.345	70.814111
902.537	71.047375
902.729	71.842196
902.921	72.257935
903.113	72.077673
903.305	71.930098
903.497	71.944920
903.689	72.007126
903.881	72.189787
904.073	72.358952
904.265	72.424986
904.457	73.149171
904.649	73.832083
904.841	73.965117
905.033	74.473089
905.224	74.917761
905.416	75.160426
905.608	75.310887
905.800	74.943186
905.992	74.392450
906.183	73.366903
906.375	72.259783
906.567	71.085630
906.759	70.118698
906.950	69.136462
907.142	68.108560
907.334	67.394079
907.525	67.072057
907.717	66.679268
907.909	66.384576
908.100	66.641504
908.292	67.140563
908.483	67.845718
908.675	68.062897
908.866	67.883494
909.058	67.943068
909.249	68.161073
909.441	68.149066
909.632	68.179386
909.824	68.193696
910.015	68.103599
910.206	67.672089
910.398	67.546572
910.589	67.510925
910.780	67.603574
910.972	67.875649
911.163	68.315823
911.354	68.649753
911.546	69.224643
911.737	69.607690
911.928	69.833898
912.119	70.145336
912.310	70.575848
912.502	70.623348
912.693	70.445997
912.884	70.378208
913.075	70.361783
913.266	70.117465
913.457	70.049661
913.648	69.830360
913.839	69.574322
914.030	69.412633
914.221	69.599591
914.412	69.947744
914.603	70.418949
914.794	70.633903
914.985	70.754132
915.176	70.847702
915.367	71.298083
915.558	71.536825
915.749	71.816291
915.940	72.173032
916.130	72.564965
916.321	72.697045
916.512	72.549838
916.703	72.730692
916.893	73.652771
917.084	74.502837
917.275	75.080570
917.466	75.189006
917.656	75.316898
917.847	75.270204
918.038	75.348324
918.228	75.457371
918.419	75.836045
918.609	76.187022
918.800	75.770099
918.990	75.166335
919.181	74.646148
919.372	74.063022
919.562	73.803800
919.753	73.881388
919.943	73.756842
920.133	73.492413
920.324	73.173874
920.514	72.897018
920.705	72.955544
920.895	72.910910
921.085	72.333170
921.276	72.287513
921.466	72.902102
921.656	73.308896
921.847	73.467135
922.037	74.184461
922.227	74.682019
922.417	75.312692
922.608	75.773054
922.798	75.531850
922.988	75.517605
923.178	75.889716
923.368	76.236587
923.558	76.286306
923.748	76.082390
923.939	75.781012
924.129	74.978440
924.319	74.231027
924.509	73.738280
924.699	73.086194
924.889	72.745423
925.079	72.708098
925.269	72.631723
925.459	71.877655
925.648	71.643661
925.838	71.824207
926.028	71.853170
926.218	72.462943
926.408	73.275519
926.598	73.703943
926.788	74.231991
926.977	74.861042
927.167	75.149979
927.357	75.557002
927.547	76.502065
927.736	76.799930
927.926	76.501174
928.116	76.469971
928.305	76.594018
928.495	76.000489
928.685	75.525415
928.874	75.533422
929.064	75.615637
929.253	76.469721
929.443	77.021044
929.633	77.288710
929.822	77.410756
930.012	77.724279
930.201	78.040057
930.391	77.634177
930.580	77.595140
930.769	77.365161
930.959	77.043594
931.148	76.924638
931.338	76.139668
931.527	75.864126
931.716	75.408492
931.906	74.943267
932.095	74.263516
932.284	73.559673
932.474	73.291095
932.663	73.413947
932.852	73.463954
933.041	73.051560
933.230	72.433414
933.420	72.319236
933.609	72.048680
933.798	72.186496
933.987	72.651268
934.176	73.248052
934.365	73.539453
934.554	73.748341
934.743	74.277863
934.932	74.970759
935.121	76.042710
935.310	77.202163
935.499	78.011753
935.688	78.487629
935.877	78.315679
936.066	78.238548
936.255	78.114872
936.444	78.274915
936.633	78.392847
936.822	78.188279
937.010	78.152491
937.199	77.646708
937.388	76.695224
937.577	75.848712
937.766	75.351671
937.954	75.390421
938.143	75.185017
938.332	75.240685
938.520	75.199168
938.709	75.031419
938.898	75.100647
939.086	75.623064
939.275	76.056548
939.464	76.746368
939.652	77.343265
939.841	77.431599
940.029	77.406219
940.218	77.449442
940.406	77.635368
940.595	78.099548
940.783	78.973647
940.972	79.221873
941.160	78.845300
941.349	79.077753
941.537	79.291632
941.725	79.563998
941.914	80.365086
942.102	81.076658
942.290	81.395209
942.479	81.123314
942.667	80.495530
942.855	79.589133
943.043	79.166808
943.232	78.851146
943.420	78.200188
943.608	77.556144
943.796	76.815180
943.984	75.978235
944.172	75.299290
944.361	74.980189
944.549	75.489340
944.737	76.411683
944.925	77.116814
945.113	77.617075
945.301	77.880193
945.489	78.039950
945.677	78.141824
945.865	77.960762
946.053	78.102285
946.241	78.032680
946.429	78.128812
946.617	77.980503
946.805	77.679517
946.992	77.672637
947.180	77.480144
947.368	77.344555
947.556	77.893609
947.744	78.255909
947.931	78.637213
948.119	78.421913
948.307	78.413819
948.495	78.215646
948.682	78.136946
948.870	78.011850
949.058	77.871555
949.245	77.562943
949.433	77.249741
949.621	76.263959
949.808	75.943419
949.996	76.568994
950.183	77.596157
950.371	78.344735
950.558	78.579843
950.746	78.575635
950.933	78.975103
951.121	79.340604
951.308	79.383700
951.496	79.131094
951.683	79.942863
951.870	80.724516
952.058	80.544557
952.245	80.102144
952.433	80.096894
952.620	80.404239
952.807	80.369193
952.994	79.976252
953.182	79.531760
953.369	79.394281
953.556	79.829128
953.743	79.190788
953.931	78.149414
954.118	77.579576
954.305	77.192714
954.492	76.565452
954.679	76.175719
954.866	76.189639
955.053	76.162871
955.240	76.039254
955.427	76.061155
955.615	76.424130
955.802	76.864979
955.989	76.990512
956.175	76.958788
956.362	76.905023
956.549	76.771889
956.736	76.331717
956.923	76.301121
957.110	75.794486
957.297	75.444436
957.484	75.586584
957.671	75.204008
957.857	74.907687
958.044	74.847647
958.231	75.346428
958.418	75.509989
958.604	75.701806
958.791	76.054480
958.978	75.445498
959.165	75.618789
959.351	76.162848
959.538	76.862845
959.724	77.318714
959.911	77.732421
960.098	78.338765
960.284	78.427421
960.471	78.077503
960.657	78.112474
960.844	78.349244
961.030	78.669687
961.217	78.486607
961.403	77.776277
961.590	76.218721
961.776	75.418974
961.963	75.705096
962.149	75.574616
962.335	75.402970
962.522	76.032201
962.708	75.716537
962.894	75.281905
963.081	75.131180
963.267	75.441896
963.453	75.756029
963.639	77.007335
963.826	77.684805
964.012	77.754096
964.198	77.550366
964.384	76.977009
964.570	76.599512
964.756	77.489848
964.943	77.946538
965.129	78.593124
965.315	78.563418
965.501	79.319590
965.687	79.261830
965.873	79.929834
966.059	80.371710
966.245	81.597169
966.431	83.318157
966.617	84.595825
966.803	84.954201
966.989	86.158206
967.174	86.926452
967.360	87.340886
967.546	86.975765
967.732	86.980519
967.918	86.685113
968.104	86.357037
968.289	85.558555
968.475	84.645045
968.661	84.321021
968.847	84.198177
969.032	83.840336
969.218	83.250787
969.404	83.389117
969.589	83.786458
969.775	83.805665
969.961	83.292696
970.146	82.744265
970.332	82.544628
970.517	82.018779
970.703	81.135579
970.888	80.286074
971.074	79.228448
971.260	79.079464
971.445	78.657344
971.630	78.474176
971.816	78.668798
972.001	79.461462
972.187	79.242548
972.372	78.698960
972.557	79.193610
972.743	79.793530
972.928	79.874969
973.113	79.661682
973.299	79.586814
973.484	79.942660
973.669	79.503267
973.854	78.936528
974.040	78.227687
974.225	78.259965
974.410	78.679116
974.595	78.804386
974.780	78.961618
974.965	79.407225
975.151	80.019551
975.336	80.279928
975.521	80.454177
975.706	81.391738
975.891	81.963689
976.076	82.614932
976.261	83.354363
976.446	83.480656
976.631	82.881363
976.816	82.228832
977.001	82.349480
977.186	82.569879
977.370	82.985201
977.555	83.549819
977.740	83.673442
977.925	84.360418
978.110	84.486385
978.295	84.456144
978.479	85.040246
978.664	85.896393
978.849	86.471084
979.034	86.482983
979.218	86.139691
979.403	85.693450
979.588	85.544298
979.772	85.880847
979.957	85.548517
980.141	85.019471
980.326	84.816937
980.511	84.400505
980.695	84.543595
980.880	84.580449
981.064	84.539698
981.249	84.726253
981.433	84.467597
981.618	83.964363
981.802	83.180225
981.987	82.481845
982.171	82.417371
982.355	81.777658
982.540	81.250712
982.724	80.958283
982.908	80.951658
983.093	80.891621
983.277	81.013406
983.461	81.686539
983.646	81.978203
983.830	82.053384
984.014	82.888078
984.198	83.562621
984.382	84.589649
984.567	86.092920
984.751	87.071055
984.935	87.065168
985.119	87.089459
985.303	86.747462
985.487	86.149897
985.671	85.503237
985.855	85.105832
986.039	84.554765
986.223	83.903094
986.407	83.118490
986.591	81.906118
986.775	80.687857
986.959	80.788699
987.143	80.783113
987.327	81.229126
987.511	81.326497
987.695	81.588386
987.879	82.543730
988.062	82.651646
988.246	82.242822
988.430	81.818592
988.614	81.469282
988.797	81.293922
988.981	81.064953
989.165	80.827782
989.349	80.526958
989.532	80.490216
989.716	80.547792
989.900	79.805558
990.083	80.247949
990.267	80.992651
990.450	81.625422
990.634	82.119721
990.817	82.995615
991.001	83.907441
991.184	84.318824
991.368	85.025912
991.551	85.678696
991.735	86.185238
991.918	86.979714
992.102	87.250896
992.285	87.359139
992.469	87.295286
992.652	87.453907
992.835	86.864421
993.019	85.692445
993.202	85.944542
993.385	85.974247
993.568	86.364881
993.752	86.946457
993.935	87.173825
994.118	86.882709
994.301	87.497046
994.484	88.234956
994.668	88.464766
994.851	88.467802
995.034	88.885188
995.217	88.383271
995.400	87.946228
995.583	87.851280
995.766	87.895699
995.949	87.541493
996.132	88.409782
996.315	89.143115
996.498	89.632326
996.681	89.988078
996.864	90.141592
997.047	89.798375
997.230	89.367641
997.413	89.358605
997.596	88.757596
997.778	87.724296
997.961	87.485542
998.144	86.510363
998.327	85.189492
998.510	84.290449
998.692	83.860676
998.875	83.607360
999.058	84.027842
999.241	84.901479
999.423	85.075789
999.606	84.951325
999.789	85.276488
999.971	85.435476
1000.154	85.814210
1000.336	86.368439
1000.519	87.249194
1000.701	87.798270
1000.884	88.681667
1001.067	89.752547
1001.249	90.350899
1001.431	90.484787
1001.614	90.683888
1001.796	90.920173
1001.979	91.369916
1002.161	91.521320
1002.344	92.097169
1002.526	92.012627
1002.708	92.128890
1002.891	92.334907
1003.073	92.017717
1003.255	92.172504
1003.438	92.574842
1003.620	92.775321
1003.802	92.066331
1003.984	91.564023
1004.166	91.143757
1004.349	89.818704
1004.531	89.818630
1004.713	90.124512
1004.895	89.524982
1005.077	88.710642
1005.259	87.919274
1005.441	87.724117
1005.623	87.619023
1005.805	87.554628
1005.987	86.876540
1006.169	86.694349
1006.351	87.203949
1006.533	87.050671
1006.715	86.291705
1006.897	86.350057
1007.079	86.675978
1007.261	86.864369
1007.443	86.778412
1007.625	86.949752
1007.806	87.897062
1007.988	88.340998
1008.170	88.456787
1008.352	88.082623
1008.534	87.049673
1008.715	86.669426
1008.897	87.329949
1009.079	88.230669
1009.260	88.846314
1009.442	89.526006
1009.624	89.700049
1009.805	88.581140
1009.987	89.103318
1010.169	89.616938
1010.350	90.142073
1010.532	90.993329
1010.713	91.415851
1010.895	91.170510
1011.076	91.191510
1011.258	91.572640
1011.439	91.298985
1011.621	91.564933
1011.802	93.190671
1011.983	93.517419
1012.165	93.596141
1012.346	94.099360
1012.527	94.041922
1012.709	94.677239
1012.890	94.037000
1013.071	92.317234
1013.253	90.893516
1013.434	90.512605
1013.615	90.528598
1013.796	90.266512
1013.978	90.492860
1014.159	90.154285
1014.340	89.788378
1014.521	90.164247
1014.702	89.553530
1014.883	89.734871
1015.064	90.382510
1015.245	90.309182
1015.427	89.564330
1015.608	88.354770
1015.789	87.355598
1015.970	86.526369
1016.151	86.063434
1016.332	85.095598
1016.512	84.771038
1016.693	85.236184
1016.874	84.781860
1017.055	84.858329
1017.236	85.384737
1017.417	85.605728
1017.598	85.707340
1017.779	85.835140
1017.959	86.477308
1018.140	87.395693
1018.321	88.071822
1018.502	88.687998
1018.682	88.686746
1018.863	89.647204
1019.044	89.649766
1019.224	89.309203
1019.405	90.254260
1019.586	91.179562
1019.766	91.727899
1019.947	91.727709
1020.127	91.523041
1020.308	91.501812
1020.488	91.123541
1020.669	90.665292
1020.849	91.025021
1021.030	91.504166
1021.210	92.492710
1021.391	92.923152
1021.571	92.825999
1021.752	92.784871
1021.932	91.951535
1022.112	91.076159
1022.293	90.634392
1022.473	90.454013
1022.653	90.927679
1022.834	90.581027
1023.014	89.936216
1023.194	89.502413
1023.374	89.345536
1023.555	88.921652
1023.735	88.525672
1023.915	88.584695
1024.095	88.685803
1024.275	89.937140
1024.455	90.569303
1024.635	90.508174
1024.816	90.256248
1024.996	90.183918
1025.176	89.859226
1025.356	88.664779
1025.536	89.017563
1025.716	89.066248
1025.896	89.038938
1026.076	89.364873
1026.256	88.511574
1026.436	87.837624
1026.615	87.091708
1026.795	86.513809
1026.975	86.753942
1027.155	86.932952
1027.335	87.935151
1027.515	87.837958
1027.695	88.717776
1027.874	89.135708
1028.054	89.413143
1028.234	89.801310
1028.413	90.255269
1028.593	90.393149
1028.773	91.015648
1028.953	91.891559
1029.132	92.110623
1029.312	92.236646
1029.491	92.468048
1029.671	91.642399
1029.851	91.798634
1030.030	91.368026
1030.210	91.289453
1030.389	90.464915
1030.569	89.785852
1030.748	89.788595
1030.928	88.218153
1031.107	88.289945
1031.286	87.916530
1031.466	87.877542
1031.645	88.115957
1031.825	87.646920
1032.004	88.385053
1032.183	88.593510
1032.363	89.611593
1032.542	91.169136
1032.721	91.996660
1032.900	93.032420
1033.080	93.512491
1033.259	93.572457
1033.438	93.867073
1033.617	95.054484
1033.796	95.835936
1033.975	95.048228
1034.155	95.575864
1034.334	95.854521
1034.513	95.304281
1034.692	94.715061
1034.871	94.361728
1035.050	93.290211
1035.229	93.425411
1035.408	92.899240
1035.587	91.497035
1035.766	91.347036
1035.945	91.580311
1036.124	90.270156
1036.303	89.304104
1036.481	89.946337
1036.660	89.411807
1036.839	89.367552
1037.018	88.624221
1037.197	87.616382
1037.376	88.015525
1037.554	88.079132
1037.733	87.255929
1037.912	87.722854
1038.091	87.284636
1038.269	87.107846
1038.448	85.836760
1038.627	85.803706
1038.805	85.063278
1038.984	86.187520
1039.162	86.882668
1039.341	86.368759
1039.520	87.033651
1039.698	87.492243
1039.877	86.718672
1040.055	87.704018
1040.234	88.223192
1040.412	88.589518
1040.591	89.560971
1040.769	90.933237
1040.947	90.942739
1041.126	90.428259
1041.304	91.655335
1041.483	91.656046
1041.661	91.154778
1041.839	91.005322
1042.017	90.862026
1042.196	91.523976
1042.374	92.243741
1042.552	90.560164
1042.730	90.117610
1042.909	89.982316
1043.087	90.832639
1043.265	90.183036
1043.443	89.599329
1043.621	90.037007
1043.799	90.570832
1043.978	91.118530
1044.156	90.885338
1044.334	90.273239
1044.512	90.861227
1044.690	89.961866
1044.868	89.560048
1045.046	88.678440
1045.224	87.636862
1045.402	87.568419
1045.580	87.532803
1045.758	86.549431
1045.935	86.985892
1046.113	86.242341
1046.291	86.207718
1046.469	86.704013
1046.647	87.529268
1046.825	87.056892
1047.002	87.205740
1047.180	88.256967
1047.358	87.947921
1047.536	87.276112
1047.713	88.749842
1047.891	87.714396
1048.069	87.762464
1048.246	88.187026
1048.424	87.671319
1048.602	86.797733
1048.779	86.628877
1048.957	86.288818
1049.134	86.936262
1049.312	87.821808
1049.489	88.688926
1049.667	88.060066
1049.844	87.928628
1050.022	86.937564
1050.199	86.026079
1050.377	86.016314
1050.554	86.359278
1050.731	87.069053
1050.909	87.154833
1051.086	86.580296
1051.263	86.188413
1051.441	86.188984
1051.618	85.586249
1051.795	84.887512
1051.973	85.576745
1052.150	85.668247
1052.327	85.714527
1052.504	86.131006
1052.681	85.888375
1052.859	85.706724
1053.036	85.802830
1053.213	85.805496
1053.390	85.634832
1053.567	86.335717
1053.744	88.046032
1053.921	88.500613
1054.098	88.830802
1054.275	88.894437
1054.452	88.433198
1054.629	88.534641
1054.806	88.766162
1054.983	87.917474
1055.160	87.684386
1055.337	87.858871
1055.514	88.092808
1055.691	87.242166
1055.868	87.495449
1056.044	88.112872
1056.221	88.076786
1056.398	88.497914
1056.575	88.366306
1056.751	88.275124
1056.928	88.239924
1057.105	88.569534
1057.282	88.871114
1057.458	88.566930
1057.635	88.427051
1057.812	87.895594
1057.988	87.337606
1058.165	87.857940
1058.341	88.285765
1058.518	88.973989
1058.694	89.732653
1058.871	90.526579
1059.047	90.438731
1059.224	89.889779
1059.401	90.114664
1059.577	90.105734
1059.753	90.158477
1059.930	90.378888
1060.106	90.163777
1060.282	89.684774
1060.459	89.403732
1060.635	89.040106
1060.812	88.562579
1060.988	88.794491
1061.164	88.761729
1061.340	88.229201
1061.517	87.670273
1061.693	87.190769
1061.869	87.138041
1062.045	86.897889
1062.221	86.716529
1062.398	85.959208
1062.574	85.913990
1062.750	86.028932
1062.926	85.295408
1063.102	84.705267
1063.278	84.735300
1063.454	85.361758
1063.630	85.601660
1063.806	85.264984
1063.982	84.920706
1064.158	84.648194
1064.334	85.229401
1064.510	84.618421
1064.686	84.162008
1064.862	84.673986
1065.038	85.134222
1065.214	85.059081
1065.389	84.537697
1065.565	84.113378
1065.741	83.950468
1065.917	83.978033
1066.093	84.184062
1066.268	84.141185
1066.444	84.538406
1066.620	84.620111
1066.795	84.223794
1066.971	84.542234
1067.147	84.252984
1067.322	84.632413
1067.498	85.344963
1067.673	85.363524
1067.849	84.885813
1068.025	84.261269
1068.200	83.937911
1068.376	83.875835
1068.551	84.088199
1068.727	83.784992
1068.902	82.507681
1069.078	82.340459
1069.253	81.575825
1069.428	81.304037
1069.604	80.976416
1069.779	80.781651
1069.954	81.479328
1070.130	81.330148
1070.305	81.394713
1070.480	81.487040
1070.656	81.703287
1070.831	81.812939
1071.006	82.536688
1071.181	83.552484
1071.357	83.767014
1071.532	83.510393
1071.707	83.925573
1071.882	83.678683
1072.057	84.364569
1072.232	84.483003
1072.407	84.377364
1072.582	84.881683
1072.757	85.463469
1072.932	84.382242
1073.107	83.720034
1073.282	83.108084
1073.457	83.398256
1073.632	82.707436
1073.807	82.175474
1073.982	82.039043
1074.157	81.462706
1074.332	80.233261
1074.507	79.206353
1074.682	79.080364
1074.856	79.832700
1075.031	79.921558
1075.206	79.830854
1075.381	79.187319
1075.556	79.271936
1075.730	79.445637
1075.905	79.191934
1076.080	79.308842
1076.254	80.139818
1076.429	80.273251
1076.604	80.319188
1076.778	80.554881
1076.953	80.573161
1077.127	81.358266
1077.302	82.460925
1077.477	83.080309
1077.651	83.615318
1077.826	83.578983
1078.000	83.262801
1078.175	82.805352
1078.349	81.979670
1078.523	81.474340
1078.698	80.543597
1078.872	80.004041
1079.047	79.073835
1079.221	79.320618
1079.395	79.213862
1079.570	79.034206
1079.744	79.052753
1079.918	79.463233
1080.092	80.160174
1080.267	81.356615
1080.441	81.953824
1080.615	82.692057
1080.789	83.343953
1080.963	83.778330
1081.137	83.070354
1081.312	82.841593
1081.486	82.612332
1081.660	82.637815
1081.834	82.778709
1082.008	82.276609
1082.182	81.290533
1082.356	81.086122
1082.530	81.084010
1082.704	81.152633
1082.878	81.126778
1083.052	80.850248
1083.226	81.101648
1083.400	81.032000
1083.573	80.295004
1083.747	78.887663
1083.921	79.081751
1084.095	80.171532
1084.269	80.782497
1084.443	80.863433
1084.616	80.424655
1084.790	80.993753
1084.964	81.566982
1085.138	81.288020
1085.311	81.331510
1085.485	80.913707
1085.659	81.428676
1085.832	80.955508
1086.006	79.926623
1086.179	78.751727
1086.353	78.107164
1086.527	78.175248
1086.700	77.109370
1086.874	76.365926
1087.047	76.269392
1087.221	75.775214
1087.394	75.515958
1087.568	75.544103
1087.741	75.606687
1087.914	75.624882
1088.088	75.903719
1088.261	75.907815
1088.435	75.975802
1088.608	76.005355
1088.781	76.228094
1088.954	76.119754
1089.128	76.299366
1089.301	76.903571
1089.474	76.512667
1089.647	76.157582
1089.821	76.126193
1089.994	75.639509
1090.167	75.299505
1090.340	74.962363
1090.513	75.330825
1090.686	75.503537
1090.859	75.676857
1091.032	75.346430
1091.206	75.287251
1091.379	75.714801
1091.552	75.924728
1091.725	75.754753
1091.898	75.241833
1092.071	75.284744
1092.244	74.914117
1092.416	74.161312
1092.589	73.170026
1092.762	72.815564
1092.935	72.674808
1093.108	72.822384
1093.281	72.442922
1093.453	72.156539
1093.626	71.791940
1093.799	72.592584
1093.972	72.795172
1094.145	73.105120
1094.317	72.919108
1094.490	73.604261
1094.663	73.622405
1094.835	73.103214
1095.008	71.744332
1095.181	71.156032
1095.353	70.787635
1095.526	71.149702
1095.698	70.562335
1095.871	69.846026
1096.043	69.606851
1096.216	69.462626
1096.388	68.448409
1096.561	67.809063
1096.733	68.029113
1096.906	68.930707
1097.078	69.554557
1097.250	69.763236
1097.423	70.012113
1097.595	70.337762
1097.768	70.733636
1097.940	70.961357
1098.112	71.608307
1098.284	72.670454
1098.457	73.258019
1098.629	73.334934
1098.801	73.028462
1098.973	73.320654
1099.146	73.304248
1099.318	72.818968
1099.490	72.791822
1099.662	72.245928
1099.834	72.032067
1100.006	72.225465
1100.178	72.094760
1100.350	72.333565
1100.522	72.169643
1100.694	72.610082
1100.866	71.876187
1101.038	71.286345
1101.210	71.373968
1101.382	71.199923
1101.554	71.140721
1101.726	70.699012
1101.898	69.853053
1102.070	68.557621
1102.241	67.838077
1102.413	68.327261
1102.585	68.181088
1102.757	68.068793
1102.929	68.508548
1103.100	68.163513
1103.272	68.244460
1103.444	68.377046
1103.616	68.427510
1103.787	68.437605
1103.959	68.983914
1104.130	69.067384
1104.302	68.146125
1104.474	67.881393
1104.645	68.085387
1104.817	67.778760
1104.988	67.989320
1105.160	67.876471
1105.331	67.347857
1105.503	67.535775
1105.674	67.373056
1105.846	67.422296
1106.017	67.294062
1106.189	67.782139
1106.360	67.460229
1106.531	66.952484
1106.703	66.824410
1106.874	66.863555
1107.045	66.877828
1107.217	66.927456
1107.388	66.512729
1107.559	66.468886
1107.730	66.284860
1107.902	65.996740
1108.073	65.519861
1108.244	65.240261
1108.415	65.353272
1108.586	65.412565
1108.757	64.683276
1108.929	64.064234
1109.100	64.023972
1109.271	63.678001
1109.442	63.418955
1109.613	63.203160
1109.784	63.127354
1109.955	63.232148
1110.126	63.398188
1110.297	63.124791
1110.468	62.717865
1110.639	63.494097
1110.809	63.819582
1110.980	63.763858
1111.151	63.807224
1111.322	63.832766
1111.493	63.814490
1111.664	63.676049
1111.834	63.820303
1112.005	63.527816
1112.176	63.621196
1112.347	63.470137
1112.517	62.766735
1112.688	62.427388
1112.859	62.438716
1113.029	62.089087
1113.200	61.866367
1113.371	61.640687
1113.541	61.196194
1113.712	60.963209
1113.882	61.103015
1114.053	60.974454
1114.223	61.373260
1114.394	61.002526
1114.564	60.253101
1114.735	59.715887
1114.905	59.729446
1115.076	59.744579
1115.246	60.038308
1115.416	60.411914
1115.587	60.286004
1115.757	60.569886
1115.927	60.420326
1116.098	60.419980
1116.268	60.983321
1116.438	61.490081
1116.609	61.505003
1116.779	61.665196
1116.949	61.950264
1117.119	61.751967
1117.289	61.217241
1117.459	60.435793
1117.630	59.811288
1117.800	59.435248
1117.970	59.332865
1118.140	59.047433
1118.310	58.794389
1118.480	59.002164
1118.650	59.101081
1118.820	58.678648
1118.990	58.075349
1119.160	58.615767
1119.330	59.037106
1119.500	59.197377
1119.670	59.282722
1119.840	58.885341
1120.010	58.858065
1120.179	58.915766
1120.349	58.908751
1120.519	58.606821
1120.689	58.351665
1120.859	58.375232
1121.028	57.624761
1121.198	57.336823
1121.368	57.258197
1121.538	57.608044
1121.707	57.538671
1121.877	56.783466
1122.047	56.421061
1122.216	56.205122
1122.386	55.760049
1122.555	55.415008
1122.725	55.256548
1122.894	55.483965
1123.064	55.654162
1123.233	55.623547
1123.403	55.428808
1123.573	55.164852
1123.742	55.772972
1123.911	55.734938
1124.081	55.295462
1124.250	55.303027
1124.419	55.023008
1124.589	55.235743
1124.758	55.298811
1124.927	54.908194
1125.097	54.476119
1125.266	53.958901
1125.435	54.144679
1125.605	53.719010
1125.774	53.330262
1125.943	53.448940
1126.112	53.779672
1126.281	54.183517
1126.450	54.181035
1126.620	54.298678
1126.789	54.850672
1126.958	55.124737
1127.127	55.444488
1127.296	55.378927
1127.465	55.382906
1127.634	55.674851
1127.803	55.578153
1127.972	54.896834
1128.141	54.582779
1128.310	54.116422
1128.479	53.452254
1128.648	52.985080
1128.817	52.850857
1128.985	52.397497
1129.154	51.754233
1129.323	51.849759
1129.492	52.070969
1129.661	52.414548
1129.829	52.834100
1129.998	53.106906
1130.167	53.183970
1130.336	53.025889
1130.504	52.741060
1130.673	52.654482
1130.842	52.733076
1131.010	53.226330
1131.179	52.869008
1131.347	52.700768
1131.516	52.161349
1131.685	51.453853
1131.853	51.160302
1132.022	51.519247
1132.190	51.916147
1132.359	51.475085
1132.527	50.346796
1132.696	50.093448
1132.864	49.434886
1133.032	48.836923
1133.201	48.457065
1133.369	48.586437
1133.537	48.936392
1133.706	48.712333
1133.874	48.083707
1134.042	47.482112
1134.211	47.677227
1134.379	47.887268
1134.547	47.826538
1134.715	47.995234
1134.884	48.239204
1135.052	47.959651
1135.220	47.896423
1135.388	47.854165
1135.556	47.732799
1135.724	47.628133
1135.892	47.485975
1136.060	47.291089
1136.228	47.331797
1136.396	46.991975
1136.564	46.622695
1136.732	46.618344
1136.900	46.686273
1137.068	46.266257
1137.236	45.993482
1137.404	46.020512
1137.572	46.254967
1137.740	46.517496
1137.908	46.342990
1138.076	46.268409
1138.243	46.447075
1138.411	46.372143
1138.579	46.258531
1138.747	46.361439
1138.914	46.059472
1139.082	45.903249
1139.250	45.877898
1139.417	45.251216
1139.585	44.831040
1139.753	45.360340
1139.920	45.566122
1140.088	45.373359
1140.256	45.552628
1140.423	45.210607
1140.591	44.566664
1140.758	44.488330
1140.926	44.447023
1141.093	44.333509
1141.261	44.399007
1141.428	44.348366
1141.596	43.415850
1141.763	42.846731
1141.930	42.658567
1142.098	42.366458
1142.265	42.435775
1142.432	43.005595
1142.600	43.229961
1142.767	42.909707
1142.934	42.486886
1143.102	41.972407
1143.269	41.367171
1143.436	41.833713
1143.603	42.106197
1143.771	42.072231
1143.938	42.249504
1144.105	42.354454
1144.272	41.449808
1144.439	40.808329
1144.606	40.907034
1144.773	40.906021
1144.940	41.039827
1145.107	41.547447
1145.274	41.358912
1145.441	41.287914
1145.608	41.208666
1145.775	40.612528
1145.942	39.752853
1146.109	40.079545
1146.276	40.148337
1146.443	39.745953
1146.610	39.857575
1146.776	39.861823
1146.943	39.605379
1147.110	39.554724
1147.277	39.040085
1147.444	38.906168
1147.610	39.274103
1147.777	39.806353
1147.944	39.468702
1148.110	39.767091
1148.277	40.142248
1148.444	39.719481
1148.610	39.743879
1148.777	39.959794
1148.944	39.771689
1149.110	39.922132
1149.277	39.835218
1149.443	39.502328
1149.610	39.757478
1149.776	40.250685
1149.943	39.690755
1150.109	39.178392
1150.276	39.417627
1150.442	39.433959
1150.608	39.357090
1150.775	39.111932
1150.941	38.857880
1151.107	38.946295
1151.274	38.850592
1151.440	38.442100
1151.606	37.744137
1151.773	37.531554
1151.939	36.886191
1152.105	36.212229
1152.271	35.803270
1152.438	35.330385
1152.604	35.442587
1152.770	35.433422
1152.936	35.424595
1153.102	35.186038
1153.268	34.807295
1153.434	34.938259
1153.600	34.987830
1153.766	35.173777
1153.932	34.807948
1154.098	34.691533
1154.264	34.837416
1154.430	34.133437
1154.596	33.583891
1154.762	32.881374
1154.928	32.950561
1155.094	32.996476
1155.260	32.458781
1155.426	32.332050
1155.591	32.563945
1155.757	32.712572
1155.923	32.836134
1156.089	32.716643
1156.255	32.874726
1156.420	33.406441
1156.586	33.289659
1156.752	32.802710
1156.917	32.530920
1157.083	32.981662
1157.249	33.077633
1157.414	32.680886
1157.580	33.111428
1157.745	32.973258
1157.911	32.617299
1158.076	32.362817
1158.242	31.732094
1158.407	31.387941
1158.573	31.305088
1158.738	31.189985
1158.904	30.669205
1159.069	30.266805
1159.235	30.523807
1159.400	29.687475
1159.565	29.330693
1159.731	29.547601
1159.896	29.893463
1160.061	29.855358
1160.227	29.956816
1160.392	29.950760
1160.557	30.027079
1160.722	30.207098
1160.888	29.970430
1161.053	29.598100
1161.218	29.921852
1161.383	30.250101
1161.548	30.140334
1161.713	29.730259
1161.878	29.533665
1162.043	29.739594
1162.208	29.876069
1162.374	29.408549
1162.539	29.159962
1162.704	29.951809
1162.869	29.944692
1163.033	30.161283
1163.198	29.795096
1163.363	29.488433
1163.528	28.957571
1163.693	28.969760
1163.858	28.799810
1164.023	28.470573
1164.188	28.373990
1164.353	28.079283
1164.517	27.609030
1164.682	28.026446
1164.847	27.681826
1165.011	27.159123
1165.176	26.890429
1165.341	26.699676
1165.506	26.392841
1165.670	26.243681
1165.835	26.156348
1166.000	26.521835
1166.164	26.824770
1166.329	26.453061
1166.493	25.798021
1166.658	25.773006
1166.822	25.754392
1166.987	25.753134
1167.151	26.309776
1167.316	26.788609
1167.480	26.348029
1167.645	26.468759
1167.809	26.334956
1167.973	26.281730
1168.138	26.243273
1168.302	25.830080
1168.466	25.517955
1168.631	25.911077
1168.795	26.066953
1168.959	26.493564
1169.124	26.370176
1169.288	26.643670
1169.452	26.472130
1169.616	26.281181
1169.780	26.074554
1169.944	25.842129
1170.109	25.984400
1170.273	25.515490
1170.437	25.035052
1170.601	24.522749
1170.765	23.745052
1170.929	23.527415
1171.093	23.961403
1171.257	23.745299
1171.421	23.399919
1171.585	23.009087
1171.749	23.148687
1171.913	23.229925
1172.077	23.324147
1172.240	23.573498
1172.404	23.639707
1172.568	23.746685
1172.732	23.404686
1172.896	22.690375
1173.060	22.579485
1173.223	22.335192
1173.387	22.398723
1173.551	21.997435
1173.715	21.702686
1173.878	21.785526
1174.042	20.988200
1174.206	20.644619
1174.369	20.216577
1174.533	20.500175
1174.696	20.426877
1174.860	20.537799
1175.023	20.683145
1175.187	20.314198
1175.351	20.378601
1175.514	20.749802
1175.677	20.736964
1175.841	20.879535
1176.004	21.223709
1176.168	21.666598
1176.331	21.682051
1176.495	21.451549
1176.658	20.842883
1176.821	20.387485
1176.985	20.408019
1177.148	20.367026
1177.311	19.898961
1177.474	19.780723
1177.638	20.114493
1177.801	19.593110
1177.964	19.168596
1178.127	18.879161
1178.291	18.691796
1178.454	18.921627
1178.617	18.931547
1178.780	19.076526
1178.943	19.256458
1179.106	19.241421
1179.269	19.019145
1179.432	18.602633
1179.595	18.788523
1179.758	18.820345
1179.921	18.985655
1180.084	19.146786
1180.247	18.880747
1180.410	19.208185
1180.573	19.200289
1180.736	18.651603
1180.899	18.349478
1181.061	18.629536
1181.224	19.156613
1181.387	19.234252
1181.550	19.303464
1181.713	19.071014
1181.875	19.288113
1182.038	19.465922
1182.201	19.076888
1182.363	19.115376
1182.526	19.207755
1182.689	19.227689
1182.851	19.081907
1183.014	18.675359
1183.177	18.780603
1183.339	18.322752
1183.502	17.853631
1183.664	17.450264
1183.827	17.183557
1183.989	17.099305
1184.152	16.723261
1184.314	16.963083
1184.477	17.090908
1184.639	17.197782
1184.801	16.858961
1184.964	16.419938
1185.126	16.803922
1185.288	17.161893
1185.451	17.352827
1185.613	17.755660
1185.775	17.923275
1185.938	17.803368
1186.100	17.288350
1186.262	17.234826
1186.424	17.125297
1186.586	17.553901
1186.749	17.834411
1186.911	17.574732
1187.073	17.062301
1187.235	16.832496
1187.397	16.436846
1187.559	16.435792
1187.721	16.559841
1187.883	16.947648
1188.045	16.801511
1188.207	16.528864
1188.369	16.444052
1188.531	16.088939
1188.693	16.220513
1188.855	16.330359
1189.017	16.028812
1189.179	16.466500
1189.341	16.833641
1189.502	16.933252
1189.664	16.585970
1189.826	16.890633
1189.988	17.085517
1190.150	17.065083
1190.311	17.149005
1190.473	16.725201
1190.635	16.841591
1190.796	17.146854
1190.958	17.330517
1191.120	16.769584
1191.281	16.886987
1191.443	17.275622
1191.604	16.983506
1191.766	16.559798
1191.928	16.217389
1192.089	16.157334
1192.251	16.577501
1192.412	16.487570
1192.574	16.425100
1192.735	16.661734
1192.896	17.211762
1193.058	16.650904
1193.219	16.646172
1193.381	16.933716
1193.542	17.065239
1193.703	17.239622
1193.865	17.213648
1194.026	16.938307
1194.187	16.942506
1194.349	17.482885
1194.510	16.738965
1194.671	16.153452
1194.832	16.454105
1194.993	16.294699
1195.155	16.402999
1195.316	16.687104
1195.477	16.386421
1195.638	16.370797
1195.799	16.351405
1195.960	16.432041
1196.121	16.217277
1196.282	16.461556
1196.443	16.677309
1196.604	16.627151
1196.765	16.802494
1196.926	16.500513
1197.087	16.503826
1197.248	16.790454
1197.409	16.708581
1197.570	16.678051
1197.730	16.642355
1197.891	15.976794
1198.052	16.135856
1198.213	16.568987
1198.374	16.416557
1198.534	16.283326
1198.695	16.301277
1198.856	15.844162
1199.016	15.845624
1199.177	16.158046
1199.338	16.247253
1199.498	16.558036
1199.659	17.318353
1199.820	17.297188
1199.980	17.184759
1200.141	17.464084
1200.301	17.622388
1200.462	17.862774
1200.622	18.031736
1200.783	17.803234
1200.943	17.760579
1201.104	17.953697
1201.264	17.894332
1201.424	17.571751
1201.585	17.328486
1201.745	16.881409
1201.906	16.988862
1202.066	17.031469
1202.226	16.706213
1202.386	16.791495
1202.547	16.845801
1202.707	16.626679
1202.867	16.321515
1203.027	16.064366
1203.188	16.009916
1203.348	15.623646
1203.508	15.653795
1203.668	15.561402
1203.828	15.431784
1203.988	15.529158
1204.148	15.713911
1204.308	16.176679
1204.468	16.164301
1204.628	16.176327
1204.788	16.510455
1204.948	16.328048
1205.108	16.952035
1205.268	17.317041
1205.428	17.599375
1205.588	17.801336
1205.748	17.720985
1205.908	17.932561
1206.068	18.023125
1206.228	18.613078
1206.387	19.164290
1206.547	19.099939
1206.707	19.254565
1206.867	19.385861
1207.026	19.651703
1207.186	19.786896
1207.346	19.228209
1207.505	19.472914
1207.665	19.219365
1207.825	18.521462
1207.984	18.301801
1208.144	17.867901
1208.303	18.031920
1208.463	18.510493
1208.622	18.445634
1208.782	18.176886
1208.941	17.854727
1209.101	18.162360
1209.260	18.092105
1209.420	18.118782
1209.579	18.313961
1209.739	18.243865
1209.898	18.410536
1210.057	18.323989
1210.217	18.165291
1210.376	17.638846
1210.535	17.714728
1210.694	18.203503
1210.854	18.489917
1211.013	18.497868
1211.172	18.511825
1211.331	18.787932
1211.490	18.672341
1211.650	18.650937
1211.809	18.196868
1211.968	17.867003
1212.127	18.218172
1212.286	17.874104
1212.445	17.541688
1212.604	17.738887
1212.763	17.806253
1212.922	18.011276
1213.081	18.062074
1213.240	18.291835
1213.399	18.458185
1213.558	18.935933
1213.717	19.243353
1213.876	19.270223
1214.035	20.045811
1214.194	20.225607
1214.352	19.730141
1214.511	19.880175
1214.670	20.100746
1214.829	20.628351
1214.988	20.703754
1215.146	20.807607
1215.305	21.074859
1215.464	21.403094
1215.622	21.345711
1215.781	20.453153
1215.940	20.149341
1216.098	20.597029
1216.257	20.739068
1216.415	20.816966
1216.574	20.611050
1216.732	21.122550
1216.891	21.086036
1217.049	20.790492
1217.208	20.895241
1217.366	21.273900
1217.525	21.881422
1217.683	22.224044
1217.842	22.134022
1218.000	22.065453
1218.158	22.030404
1218.317	21.857645
1218.475	21.596504
1218.633	21.906079
1218.792	22.462738
1218.950	22.218490
1219.108	22.322844
1219.266	22.761881
1219.425	22.906143
1219.583	22.579478
1219.741	22.650291
1219.899	22.525903
1220.057	22.855755
1220.215	22.862732
1220.373	22.894208
1220.531	22.290855
1220.689	22.277815
1220.847	22.161372
1221.005	21.458803
1221.163	20.970038
1221.322	21.277144
1221.479	21.309805
1221.637	21.530360
1221.795	21.552335
1221.953	21.417823
1222.111	21.050049
1222.269	21.386681
1222.427	21.444895
1222.584	21.625862
1222.742	21.879297
1222.900	22.897460
1223.058	23.675641
1223.216	23.822083
1223.373	24.210989
1223.531	24.495688
1223.689	24.890689
1223.846	25.271866
1224.004	25.674078
1224.162	26.179223
1224.319	25.822808
1224.477	25.944531
1224.634	25.501170
1224.792	24.986867
1224.949	24.692210
1225.107	24.329117
1225.264	24.150284
1225.422	23.789322
1225.579	24.010154
1225.737	24.362496
1225.894	24.511723
1226.052	25.052903
1226.209	25.115588
1226.366	25.198267
1226.523	25.233116
1226.681	25.995700
1226.838	25.760060
1226.995	25.208200
1227.153	25.290685
1227.310	25.053865
1227.467	24.397158
1227.624	24.015994
1227.781	23.577207
1227.938	23.718230
1228.096	23.949529
1228.253	24.152382
1228.410	23.001521
1228.567	23.358840
1228.724	23.622113
1228.881	23.471619
1229.038	23.710532
1229.195	24.129877
1229.352	24.047509
1229.509	23.990018
1229.666	24.120953
1229.823	24.145898
1229.980	23.792434
1230.136	24.378039
1230.293	24.566158
1230.450	25.024612
1230.607	25.681409
1230.764	25.818857
1230.921	26.070118
1231.077	26.554340
1231.234	27.008427
1231.391	27.241378
1231.547	27.476222
1231.704	27.801607
1231.861	28.692031
1232.018	29.294481
1232.174	29.396661
1232.331	29.036104
1232.487	28.805617
1232.644	28.806477
1232.800	28.969117
1232.957	29.570720
1233.113	29.681551
1233.270	29.283341
1233.426	29.671955
1233.583	29.644292
1233.739	29.281261
1233.896	29.091356
1234.052	29.431347
1234.208	29.832763
1234.365	29.707968
1234.521	29.817517
1234.677	29.873432
1234.834	29.982901
1234.990	30.387024
1235.146	30.179361
1235.302	29.992525
1235.459	30.170090
1235.615	30.355625
1235.771	30.471513
1235.927	30.672401
1236.083	30.848827
1236.239	30.917700
1236.396	30.985678
1236.552	31.262523
1236.708	31.025943
1236.864	30.897964
1237.020	30.984825
1237.176	30.443140
1237.332	30.325702
1237.488	30.399237
1237.644	29.975050
1237.799	29.809512
1237.955	29.988848
1238.111	30.127981
1238.267	30.160910
1238.423	30.507746
1238.579	30.608948
1238.734	30.342570
1238.890	30.896590
1239.046	31.437122
1239.202	31.578184
1239.357	31.725323
1239.513	31.799657
1239.669	31.854970
1239.824	31.517936
1239.980	31.353162
1240.136	30.948670
1240.291	30.742211
1240.447	31.290452
1240.603	31.845669
1240.758	32.700600
1240.914	33.070907
1241.069	33.734723
1241.225	34.215093
1241.380	33.836505
1241.535	33.863783
1241.691	33.549785
1241.846	33.350842
1242.002	33.853315
1242.157	33.900369
1242.313	33.166745
1242.468	32.461555
1242.623	32.147071
1242.778	32.070659
1242.934	31.727523
1243.089	32.003172
1243.244	31.965367
1243.399	32.048263
1243.554	32.556731
1243.710	33.105028
1243.865	32.884834
1244.020	32.720941
1244.175	32.109783
1244.330	32.825698
1244.485	33.372499
1244.640	33.539025
1244.795	33.860270
1244.950	34.131732
1245.105	34.840807
1245.260	35.261331
1245.415	34.698071
1245.570	34.415751
1245.725	34.957225
1245.880	35.912709
1246.035	35.596354
1246.190	35.208135
1246.345	35.577565
1246.499	35.132557
1246.654	34.768958
1246.809	34.298354
1246.964	33.986565
1247.118	34.325234
1247.273	34.605042
1247.428	34.936033
1247.583	34.898387
1247.737	34.787601
1247.892	34.801810
1248.047	34.718796
1248.201	34.726265
1248.356	35.576624
1248.510	36.054091
1248.665	36.386043
1248.819	36.247153
1248.974	36.638759
1249.128	36.839352
1249.283	37.185196
1249.437	37.849570
1249.592	38.447860
1249.746	38.333148
1249.900	38.974397
1250.055	38.878816
1250.209	38.618463
1250.363	39.036383
1250.518	39.504635
1250.672	39.293982
1250.826	38.997181
1250.981	38.585099
1251.135	38.205327
1251.289	38.061089
1251.443	38.457295
1251.597	38.276845
1251.751	37.759099
1251.906	37.685817
1252.060	37.528099
1252.214	37.704228
1252.368	38.326012
1252.522	38.899572
1252.676	38.858026
1252.830	38.822497
1252.984	37.957212
1253.138	37.206226
1253.292	37.243161
1253.446	38.052871
1253.600	38.632965
1253.754	38.858007
1253.907	38.408212
1254.061	37.885788
1254.215	37.359991
1254.369	37.669760
1254.523	37.090772
1254.677	37.808403
1254.830	38.216261
1254.984	38.068545
1255.138	37.859908
1255.292	37.980095
1255.445	38.007114
1255.599	38.203917
1255.752	38.570468
1255.906	39.179192
1256.060	39.406618
1256.213	39.988316
1256.367	39.269200
1256.520	39.690978
1256.674	40.448784
1256.827	40.640280
1256.981	40.199178
1257.134	40.454169
1257.288	41.398813
1257.441	41.440944
1257.594	40.643431
1257.748	40.657677
1257.901	41.526598
1258.055	42.941005
1258.208	43.005088
1258.361	42.030546
1258.515	41.941595
1258.668	42.170259
1258.821	42.140313
1258.974	41.581081
1259.127	41.463711
1259.281	42.252967
1259.434	41.781933
1259.587	40.916521
1259.740	40.405415
1259.893	40.108543
1260.046	40.770819
1260.199	40.389999
1260.352	40.425175
1260.505	40.358732
1260.658	41.050430
1260.811	40.914451
1260.964	39.961550
1261.117	40.343627
1261.270	40.846917
1261.423	40.369227
1261.576	40.463280
1261.729	41.025191
1261.882	41.252908
1262.035	41.210157
1262.188	41.028251
1262.340	41.141269
1262.493	42.104203
1262.646	43.204264
1262.798	43.316412
1262.951	43.570714
1263.104	44.348101
1263.257	45.015875
1263.409	45.170214
1263.562	46.267426
1263.714	46.860615
1263.867	47.807029
1264.020	47.106193
1264.172	46.587072
1264.325	45.913116
1264.477	45.950120
1264.630	45.029257
1264.782	44.388313
1264.935	43.693989
1265.087	43.038888
1265.240	41.985851
1265.392	41.083840
1265.544	40.257404
1265.697	40.511531
1265.849	40.666240
1266.001	40.633816
1266.154	40.809503
1266.306	41.839272
1266.458	42.265864
1266.610	42.605182
1266.762	42.792588
1266.915	43.119511
1267.067	43.169059
1267.219	41.990177
1267.371	41.485697
1267.523	41.136123
1267.675	42.280496
1267.828	42.485427
1267.979	42.956049
1268.132	43.597863
1268.284	44.414614
1268.436	44.053617
1268.588	44.608809
1268.740	45.596615
1268.891	46.845701
1269.043	47.903889
1269.195	49.177696
1269.347	49.559072
1269.499	49.794504
1269.651	49.695454
1269.803	49.431648
1269.955	49.202294
1270.106	50.441072
1270.258	49.994359
1270.410	50.044893
1270.562	50.427482
1270.713	50.468209
1270.865	49.781973
1271.017	49.217201
1271.168	48.515947
1271.320	47.652821
1271.471	47.730410
1271.623	47.365895
1271.775	46.698719
1271.926	46.951038
1272.078	45.841686
1272.229	46.049756
1272.381	46.415057
1272.532	47.123775
1272.684	48.074545
1272.835	49.632025
1272.986	50.561366
1273.138	51.200384
1273.289	51.824490
1273.440	53.056339
1273.592	52.980567
1273.743	54.600271
1273.894	54.641591
1274.046	54.373381
1274.197	54.366621
1274.348	53.991182
1274.500	53.466724
1274.651	53.549182
1274.802	53.355109
>>>>>>>>>> END of Data <<<<<<<<<<
