Date	2025年07月03日木曜日 10時01分31秒
Spectrometers	SR401765
ダーク	使用
リファレンス	使用
積分時間[msec]	300
平均回数	1
ｽﾑｰｼﾞﾝｸﾞ	5
Electrical Dark	USE
ピクセル数	3648
計測モード	反射率
保存開始波長[nm]	598.495
保存終了波長[nm]	1274.802
保存ﾋﾟｯﾁ波長[nm]	全波長

>>>>>>>>>> Data Start <<<<<<<<<<<<
598.495	0.000000
598.713	0.000000
598.931	0.000000
599.148	0.000000
599.366	128.952270
599.584	80.684597
599.802	146.892751
600.020	0.000000
600.238	0.000000
600.455	0.000000
600.673	0.000000
600.891	26.973607
601.109	29.650198
601.326	30.588602
601.544	31.166309
601.762	31.875054
601.979	32.138394
602.197	32.349118
602.415	32.705793
602.632	32.788154
602.850	32.766380
603.067	32.744236
603.285	32.845725
603.502	33.034922
603.720	33.168173
603.938	33.171848
604.155	33.035328
604.372	33.172797
604.590	33.339354
604.807	33.514744
605.025	33.790288
605.242	34.121654
605.460	34.463246
605.677	34.748428
605.894	34.873307
606.112	35.082175
606.329	35.345880
606.546	35.567362
606.764	35.524306
606.981	35.538677
607.198	35.396004
607.415	35.305301
607.633	35.281534
607.850	35.346825
608.067	35.566854
608.284	35.962684
608.501	36.247728
608.718	36.520578
608.935	36.864287
609.153	37.214278
609.370	37.668108
609.587	38.159792
609.804	38.366744
610.021	38.622153
610.238	38.877759
610.455	38.861595
610.672	38.861159
610.889	38.910861
611.106	39.033268
611.323	39.195002
611.540	39.387239
611.756	39.445546
611.973	39.533401
612.190	39.824429
612.407	39.977853
612.624	40.204127
612.841	40.597099
613.057	40.996713
613.274	41.275231
613.491	41.590621
613.708	41.762961
613.925	41.842121
614.141	42.099901
614.358	42.486040
614.575	42.855213
614.791	43.267284
615.008	43.549760
615.225	43.832867
615.441	44.061945
615.658	44.267803
615.874	44.387301
616.091	44.737991
616.307	44.997979
616.524	45.064799
616.740	45.069879
616.957	45.203613
617.173	45.502199
617.390	45.700015
617.606	45.828396
617.823	46.001930
618.039	46.234060
618.256	46.385031
618.472	46.374163
618.688	46.558068
618.905	46.957233
619.121	47.505826
619.337	47.732601
619.554	47.820509
619.770	48.006587
619.986	48.314311
620.202	48.370067
620.419	48.371915
620.635	48.542860
620.851	48.782727
621.067	49.057627
621.283	49.210342
621.499	49.332973
621.716	49.598672
621.932	49.760076
622.148	49.968421
622.364	50.175323
622.580	50.524502
622.796	51.049845
623.012	51.468720
623.228	51.801668
623.444	51.998674
623.660	52.109017
623.876	52.073246
624.092	52.156099
624.308	52.292942
624.524	52.491793
624.740	52.682757
624.955	52.809910
625.171	52.868655
625.387	52.979816
625.603	53.174357
625.819	53.490339
626.034	53.630568
626.250	53.673160
626.466	53.845057
626.682	54.216896
626.897	54.534949
627.113	54.785433
627.329	55.225045
627.544	55.709808
627.760	56.157502
627.976	56.392570
628.191	56.421060
628.407	56.602550
628.623	57.023623
628.838	57.371270
629.054	57.402376
629.269	57.424325
629.485	57.555904
629.700	57.686844
629.916	57.701219
630.131	57.624745
630.347	57.668075
630.562	57.863719
630.777	58.085315
630.993	58.142522
631.208	58.171962
631.424	58.354998
631.639	58.243730
631.854	58.095236
632.070	57.988604
632.285	58.105552
632.500	58.438148
632.715	58.864525
632.931	59.278255
633.146	59.445109
633.361	59.520926
633.576	59.607799
633.791	59.759400
634.007	60.146928
634.222	60.629741
634.437	61.193551
634.652	61.482568
634.867	61.646652
635.082	61.737512
635.297	61.742077
635.512	61.868419
635.727	62.087268
635.942	62.341157
636.157	62.539557
636.372	62.794559
636.587	62.917845
636.802	62.888334
637.017	63.011229
637.232	63.015060
637.447	63.336895
637.662	63.899034
637.876	64.364206
638.091	64.764247
638.306	65.088830
638.521	65.456694
638.736	65.778141
638.951	65.942532
639.165	65.890373
639.380	65.827872
639.595	66.009867
639.809	65.937690
640.024	65.760192
640.239	65.812891
640.453	65.930651
640.668	65.898156
640.883	65.825372
641.097	65.751616
641.312	65.919311
641.526	66.089034
641.741	66.076274
641.955	65.863710
642.170	65.784791
642.384	65.765737
642.599	65.729463
642.813	65.545197
643.028	65.443160
643.242	65.375243
643.457	65.466933
643.671	65.601659
643.885	65.841120
644.100	66.285241
644.314	66.954281
644.528	67.446100
644.743	67.718943
644.957	67.961459
645.171	68.638996
645.386	69.367600
645.600	69.862571
645.814	70.049301
646.028	70.135602
646.242	70.329982
646.457	70.377965
646.671	70.244928
646.885	70.250921
647.099	70.240146
647.313	70.323564
647.527	70.245395
647.741	70.133213
647.955	70.162673
648.169	70.086425
648.383	69.729842
648.597	69.298302
648.811	68.950849
649.025	68.590534
649.239	68.361688
649.453	68.476786
649.667	68.454112
649.881	68.299119
650.095	68.046117
650.309	67.651973
650.523	67.715919
650.737	68.153583
650.950	68.665751
651.164	69.317060
651.378	69.954660
651.592	70.413295
651.805	70.653006
652.019	70.961534
652.233	71.097262
652.447	71.256415
652.660	71.682108
652.874	71.799834
653.088	71.631673
653.301	71.411500
653.515	71.254724
653.728	71.206568
653.942	71.104561
654.156	71.150741
654.369	71.197097
654.583	71.442672
654.796	71.964069
655.010	72.406633
655.223	72.759821
655.437	72.987890
655.650	73.109042
655.863	72.988722
656.077	72.994345
656.290	73.148105
656.504	73.143061
656.717	73.085406
656.930	73.049217
657.144	72.826602
657.357	72.636426
657.570	72.603254
657.783	72.748326
657.997	73.055924
658.210	73.377670
658.423	73.406955
658.636	73.341663
658.849	73.246513
659.063	73.186563
659.276	73.410686
659.489	73.762892
659.702	73.918158
659.915	73.768558
660.128	73.600330
660.341	73.461314
660.554	73.430226
660.767	73.419815
660.980	73.382226
661.193	73.493990
661.406	73.690482
661.619	73.514551
661.832	73.103629
662.045	72.668813
662.258	72.729100
662.471	72.995457
662.684	73.093853
662.897	73.032517
663.110	72.924241
663.322	72.704170
663.535	72.712541
663.748	72.854856
663.961	73.016152
664.174	73.168812
664.386	73.218156
664.599	73.124273
664.812	73.114748
665.024	73.329856
665.237	73.719347
665.450	74.362310
665.662	75.166455
665.875	75.620281
666.088	75.825416
666.300	75.967448
666.513	76.341398
666.725	76.981486
666.938	77.466196
667.150	77.540739
667.363	77.435909
667.575	77.364126
667.788	77.093508
668.000	76.654005
668.213	76.327151
668.425	76.223308
668.638	76.276641
668.850	76.043721
669.062	75.886813
669.275	76.067950
669.487	76.372312
669.699	76.548808
669.912	76.534256
670.124	76.498277
670.336	76.678695
670.548	76.746404
670.761	76.748012
670.973	76.749533
671.185	76.766309
671.397	76.686081
671.609	76.373484
671.822	76.316605
672.034	76.534767
672.246	76.860786
672.458	77.277793
672.670	77.373732
672.882	77.366669
673.094	77.120333
673.306	76.993393
673.518	77.201616
673.730	77.439055
673.942	77.841068
674.154	77.970742
674.366	77.712542
674.578	77.424582
674.790	77.135810
675.002	77.031979
675.214	76.966576
675.425	77.156613
675.637	77.317139
675.849	77.338605
676.061	77.372224
676.273	77.128279
676.484	76.899341
676.696	76.880865
676.908	76.799464
677.120	76.614338
677.331	76.510680
677.543	76.618613
677.755	76.936240
677.966	77.228833
678.178	77.174742
678.389	77.083990
678.601	77.262245
678.813	77.490927
679.024	77.638326
679.236	77.617544
679.447	77.718915
679.659	77.937304
679.870	78.226333
680.082	78.006259
680.293	77.807636
680.505	78.034407
680.716	78.163971
680.927	78.206006
681.139	78.189387
681.350	78.280858
681.562	78.623287
681.773	78.880086
681.984	78.637770
682.196	77.961016
682.407	77.640083
682.618	77.364380
682.829	77.019203
683.041	76.868377
683.252	76.787282
683.463	76.848087
683.674	76.987240
683.885	77.065785
684.097	77.049039
684.308	77.151521
684.519	77.413147
684.730	77.635797
684.941	77.926350
685.152	78.224211
685.363	78.385703
685.574	78.361537
685.785	78.197263
685.996	77.921171
686.207	77.697487
686.418	77.690147
686.629	78.023482
686.840	78.498738
687.051	78.779908
687.262	78.723408
687.473	78.470266
687.684	78.360451
687.894	78.303118
688.105	78.252852
688.316	78.276581
688.527	78.215714
688.738	78.099870
688.948	77.650441
689.159	76.964918
689.370	76.436457
689.580	75.952969
689.791	75.621148
690.002	75.279528
690.212	75.010964
690.423	75.025306
690.634	75.137803
690.844	75.225189
691.055	75.336329
691.266	75.821531
691.476	76.652010
691.687	77.279224
691.897	77.672231
692.108	77.900602
692.318	77.995769
692.529	78.086096
692.739	78.189643
692.949	78.236303
693.160	78.357633
693.370	78.418537
693.581	78.281496
693.791	78.106550
694.001	78.061454
694.212	78.364758
694.422	78.932836
694.632	79.340703
694.843	79.288582
695.053	79.067313
695.263	78.948015
695.473	79.010930
695.683	79.255503
695.894	79.526360
696.104	79.664989
696.314	79.837135
696.524	79.830701
696.734	79.378129
696.944	79.229986
697.154	79.519321
697.365	79.519795
697.575	79.359251
697.785	79.174025
697.995	78.852763
698.205	78.634480
698.415	78.576987
698.625	78.506872
698.834	78.648064
699.044	79.122963
699.254	79.451114
699.464	79.807807
699.674	80.448941
699.884	80.592824
700.094	80.482217
700.304	80.355114
700.513	80.053657
700.723	79.334496
700.933	78.578613
701.143	77.858177
701.353	77.010324
701.562	76.303678
701.772	75.681484
701.982	75.257575
702.191	75.292093
702.401	75.359044
702.611	75.508636
702.820	75.650394
703.030	76.120546
703.239	76.444338
703.449	76.593594
703.659	77.026358
703.868	77.583946
704.078	78.164155
704.287	78.472673
704.497	78.451197
704.706	78.117893
704.916	77.636393
705.125	77.220347
705.334	76.944741
705.544	77.116419
705.753	77.304651
705.962	77.170052
706.172	76.779452
706.381	76.453979
706.590	76.191175
706.800	76.233635
707.009	76.618211
707.218	77.079846
707.428	77.471413
707.637	77.320428
707.846	76.972082
708.055	77.261210
708.264	78.008715
708.474	78.814538
708.683	79.177812
708.892	79.248248
709.101	79.183438
709.310	79.042594
709.519	78.947274
709.728	78.914138
709.937	79.463224
710.146	80.012839
710.355	79.632732
710.564	78.909338
710.773	78.138217
710.982	77.447817
711.191	77.095081
711.400	77.011307
711.609	77.169979
711.818	77.335098
712.027	77.445766
712.235	77.331847
712.444	77.112104
712.653	77.198817
712.862	77.350020
713.071	77.380476
713.279	77.343458
713.488	77.217046
713.697	77.166062
713.906	77.068285
714.114	76.924485
714.323	76.773257
714.532	76.610762
714.740	76.308871
714.949	76.082473
715.157	76.050501
715.366	76.190256
715.575	76.369905
715.783	76.592315
715.992	76.519008
716.200	76.142873
716.409	75.740059
716.617	75.413911
716.826	75.130513
717.034	75.133401
717.242	75.262541
717.451	75.462402
717.659	75.811710
717.868	76.163417
718.076	76.362342
718.284	76.534733
718.493	76.763646
718.701	76.963020
718.909	77.226811
719.118	77.591300
719.326	77.736805
719.534	77.516107
719.742	77.049708
719.951	76.561299
720.159	76.215689
720.367	76.013662
720.575	75.869622
720.783	75.740851
720.991	75.584398
721.199	75.483350
721.408	75.338631
721.616	75.398755
721.824	75.754821
722.032	75.902221
722.240	75.744998
722.448	75.714978
722.656	75.687960
722.864	75.469634
723.072	75.314918
723.280	75.092947
723.487	74.380188
723.695	73.719511
723.903	73.200206
724.111	72.674504
724.319	72.333966
724.527	72.184176
724.735	72.154599
724.942	72.091628
725.150	72.075625
725.358	71.997942
725.566	72.180267
725.773	72.800334
725.981	73.172942
726.189	73.165006
726.396	73.185747
726.604	73.191001
726.812	73.065409
727.019	72.697171
727.227	72.176235
727.435	71.833748
727.642	71.902234
727.850	71.841096
728.057	71.392163
728.265	71.043393
728.472	71.046605
728.680	70.864403
728.887	70.535322
729.095	70.331060
729.302	70.253164
729.509	70.238116
729.717	70.339267
729.924	70.366778
730.132	70.433145
730.339	70.736272
730.546	70.993245
730.753	70.906280
730.961	70.755280
731.168	70.774682
731.375	70.798989
731.583	70.750636
731.790	71.005236
731.997	71.427589
732.204	71.564537
732.411	71.373105
732.618	70.985049
732.826	70.724051
733.033	70.726881
733.240	70.949601
733.447	71.176305
733.654	71.261943
733.861	71.297373
734.068	71.105110
734.275	70.739852
734.482	70.413478
734.689	70.125987
734.896	69.917641
735.103	69.683672
735.310	69.402829
735.517	69.087226
735.724	68.991753
735.931	69.182145
736.137	69.248004
736.344	69.269788
736.551	69.183683
736.758	68.911793
736.965	68.808407
737.171	69.001104
737.378	69.271295
737.585	69.414497
737.792	69.488440
737.998	69.601545
738.205	69.523557
738.412	69.231750
738.618	68.883348
738.825	68.612173
739.032	68.706086
739.238	68.923027
739.445	69.021220
739.651	68.793204
739.858	68.460938
740.064	68.008274
740.271	67.304558
740.477	66.886207
740.684	66.801144
740.890	66.710424
741.097	66.463234
741.303	65.841281
741.510	65.330078
741.716	64.896185
741.922	64.489366
742.129	64.120002
742.335	63.948983
742.541	63.785545
742.748	63.426259
742.954	63.225821
743.160	63.046736
743.366	62.949643
743.573	62.968336
743.779	62.923627
743.985	62.895651
744.191	63.069937
744.397	63.408589
744.604	63.510756
744.810	63.536421
745.016	63.751903
745.222	63.900724
745.428	64.078141
745.634	64.251133
745.840	64.631716
746.046	64.846796
746.252	64.878597
746.458	64.801116
746.664	64.516917
746.870	64.310601
747.076	63.916433
747.282	63.346730
747.488	63.165289
747.694	63.265686
747.900	63.478637
748.105	63.640804
748.311	63.674124
748.517	63.539530
748.723	63.339989
748.929	63.148597
749.134	62.803791
749.340	62.428335
749.546	62.008682
749.752	61.296892
749.957	60.496364
750.163	59.739743
750.369	58.902508
750.574	58.266518
750.780	57.847976
750.985	57.342212
751.191	56.979373
751.397	57.018744
751.602	57.282737
751.808	57.485310
752.013	57.638110
752.219	57.622550
752.424	57.344024
752.630	56.992955
752.835	56.758732
753.041	56.621180
753.246	56.670924
753.451	56.629195
753.657	56.449860
753.862	56.450044
754.067	56.369052
754.273	56.075205
754.478	55.919805
754.683	55.751810
754.889	55.590757
755.094	55.344001
755.299	55.003474
755.504	54.575536
755.710	54.162265
755.915	53.681052
756.120	52.880288
756.325	52.262384
756.530	51.847813
756.735	51.340327
756.940	50.909891
757.146	50.603385
757.351	50.359690
757.556	50.179283
757.761	50.262614
757.966	50.447210
758.171	50.565409
758.376	50.654449
758.581	50.643765
758.786	50.631547
758.990	50.634694
759.195	50.638062
759.400	50.521406
759.605	50.194902
759.810	49.825547
760.015	49.281642
760.220	48.785203
760.424	48.391237
760.629	48.159140
760.834	47.831700
761.039	47.414082
761.244	47.049667
761.448	46.583497
761.653	46.157317
761.858	45.852035
762.062	45.520618
762.267	45.186832
762.472	44.776733
762.676	44.511838
762.881	44.329862
763.085	44.149865
763.290	43.983412
763.494	43.603357
763.699	43.228471
763.903	42.818165
764.108	42.439001
764.312	42.046477
764.517	41.653244
764.721	41.370689
764.926	40.978380
765.130	40.294446
765.335	39.747308
765.539	39.306162
765.743	38.973425
765.948	38.703230
766.152	38.368215
766.356	37.890645
766.560	37.682073
766.765	37.660832
766.969	37.473317
767.173	37.307023
767.377	37.408385
767.582	37.538011
767.786	37.387277
767.990	37.126827
768.194	36.895869
768.398	36.741389
768.602	36.570321
768.806	36.180470
769.010	35.614729
769.215	35.044766
769.419	34.620187
769.623	34.166802
769.827	33.639993
770.031	33.162685
770.234	32.644607
770.438	32.147001
770.642	31.732384
770.846	31.431552
771.050	31.097547
771.254	30.752766
771.458	30.542471
771.662	30.221625
771.866	29.868276
772.069	29.542453
772.273	29.246469
772.477	29.005744
772.681	28.718605
772.885	28.363703
773.088	28.002620
773.292	27.673681
773.496	27.332029
773.699	26.926071
773.903	26.495856
774.107	26.120739
774.310	25.704173
774.514	25.199682
774.717	24.857443
774.921	24.608434
775.124	24.464286
775.328	24.331371
775.531	24.155065
775.735	23.929906
775.938	23.568997
776.142	23.146574
776.345	22.796259
776.549	22.498242
776.752	22.263702
776.956	21.950552
777.159	21.597164
777.362	21.056381
777.566	20.521666
777.769	20.068430
777.972	19.765031
778.176	19.536494
778.379	19.308079
778.582	18.968326
778.785	18.672746
778.989	18.530438
779.192	18.331380
779.395	18.086634
779.598	17.940877
779.801	17.743870
780.004	17.412592
780.207	16.965466
780.411	16.630318
780.614	16.516712
780.817	16.379396
781.020	16.217349
781.223	15.841165
781.426	15.507565
781.629	15.184308
781.832	14.808755
782.035	14.509096
782.238	14.261787
782.440	14.071655
782.643	13.952529
782.846	13.711524
783.049	13.434365
783.252	13.086639
783.455	12.837117
783.658	12.655289
783.860	12.532173
784.063	12.453725
784.266	12.332740
784.469	12.272677
784.671	12.307292
784.874	12.225584
785.077	12.128277
785.279	12.072555
785.482	12.116461
785.685	12.222756
785.887	12.200904
786.090	12.135658
786.293	12.036942
786.495	11.950941
786.698	11.855121
786.900	11.606294
787.103	11.390212
787.305	11.202567
787.508	11.167709
787.710	10.988969
787.913	10.736047
788.115	10.523046
788.317	10.295896
788.520	10.136861
788.722	10.053222
788.924	10.040034
789.127	10.147805
789.329	10.226615
789.531	10.264316
789.734	10.286782
789.936	10.396199
790.138	10.433528
790.340	10.533187
790.543	10.676033
790.745	10.748104
790.947	10.799309
791.149	10.742569
791.351	10.659279
791.553	10.542721
791.756	10.466036
791.958	10.441888
792.160	10.427921
792.362	10.484383
792.564	10.501795
792.766	10.567199
792.968	10.672699
793.170	10.724952
793.372	10.793626
793.574	10.837976
793.776	11.102652
793.978	11.302269
794.180	11.432456
794.381	11.592557
794.583	11.796759
794.785	11.972129
794.987	12.002625
795.189	12.198208
795.391	12.461373
795.592	12.716233
795.794	12.916212
795.996	13.038015
796.198	13.275040
796.399	13.514971
796.601	13.621973
796.803	13.739207
797.004	14.001557
797.206	14.409576
797.407	14.573001
797.609	14.640733
797.811	14.817557
798.012	15.133664
798.214	15.314030
798.415	15.442568
798.617	15.535879
798.818	15.730551
799.020	15.947292
799.221	16.034314
799.423	16.017369
799.624	16.016644
799.826	16.176756
800.027	16.447965
800.228	16.676402
800.430	16.983690
800.631	17.267409
800.832	17.370054
801.034	17.468138
801.235	17.745581
801.436	17.950941
801.637	18.300825
801.839	18.807022
802.040	19.081991
802.241	19.143688
802.442	19.361343
802.643	19.442618
802.844	19.560155
803.046	19.798463
803.247	20.128973
803.448	20.269609
803.649	20.594452
803.850	20.857944
804.051	21.209719
804.252	21.687916
804.453	22.123053
804.654	22.394491
804.855	22.838568
805.056	23.209782
805.257	23.572777
805.458	23.886822
805.659	24.246531
805.859	24.535672
806.060	24.802134
806.261	24.884470
806.462	25.026364
806.663	25.240427
806.864	25.407991
807.064	25.546353
807.265	25.806734
807.466	26.055149
807.667	26.289149
807.867	26.608391
808.068	27.046781
808.269	27.414195
808.469	27.843192
808.670	28.183710
808.870	28.435393
809.071	28.659587
809.272	28.873232
809.472	29.013231
809.673	29.201222
809.873	29.394136
810.074	29.461566
810.274	29.369853
810.475	29.509634
810.675	29.782510
810.876	30.032220
811.076	30.348817
811.276	30.778736
811.477	31.115015
811.677	31.321370
811.878	31.556265
812.078	31.765065
812.278	31.895168
812.479	32.278211
812.679	32.475699
812.879	32.529829
813.079	32.584188
813.280	32.737246
813.480	32.876836
813.680	32.996806
813.880	33.300917
814.080	33.885513
814.280	34.508028
814.480	35.019949
814.681	35.344024
814.881	35.712399
815.081	35.962830
815.281	36.385661
815.481	36.890695
815.681	37.411453
815.881	37.836861
816.081	38.030016
816.281	37.810127
816.481	37.634638
816.681	37.751061
816.880	38.049541
817.080	38.303127
817.280	38.697643
817.480	38.947453
817.680	38.823081
817.880	38.788306
818.080	39.103766
818.279	39.419910
818.479	39.953529
818.679	40.542603
818.879	40.850017
819.078	40.775589
819.278	40.604443
819.478	40.451756
819.677	40.505458
819.877	40.931801
820.077	41.228105
820.276	41.358894
820.476	41.592796
820.675	41.812201
820.875	42.125906
821.074	42.488473
821.274	42.866183
821.473	43.333775
821.673	43.802790
821.872	44.212625
822.072	44.504329
822.271	44.852513
822.471	45.107216
822.670	45.298986
822.869	45.402973
823.069	45.428419
823.268	45.547048
823.467	45.923083
823.667	46.365704
823.866	46.853209
824.065	47.290546
824.265	47.496666
824.464	47.514646
824.663	47.726906
824.862	48.174654
825.061	48.680930
825.261	48.787695
825.460	48.776437
825.659	48.724169
825.858	48.651232
826.057	48.669214
826.256	48.719134
826.455	48.793893
826.654	49.059805
826.853	49.252163
827.052	49.229995
827.251	49.149424
827.450	49.301524
827.649	49.410265
827.848	49.350802
828.047	49.362922
828.246	49.303864
828.445	49.078420
828.644	49.158634
828.843	49.299825
829.041	49.417211
829.240	49.681742
829.439	49.665790
829.638	49.584227
829.836	49.663952
830.035	49.877406
830.234	50.190791
830.433	50.564278
830.631	51.117946
830.830	51.765843
831.029	52.447920
831.227	52.912639
831.426	53.235295
831.624	53.896269
831.823	54.550327
832.022	55.138470
832.220	55.756870
832.419	56.005017
832.617	55.833381
832.816	55.766983
833.014	55.594502
833.213	55.476169
833.411	55.562198
833.609	55.568800
833.808	55.317590
834.006	54.943623
834.205	54.806762
834.403	54.786984
834.601	55.020011
834.800	55.722459
834.998	56.016394
835.196	55.813194
835.394	55.367167
835.593	54.912887
835.791	54.746691
835.989	54.957655
836.187	55.376362
836.385	55.697343
836.584	55.905936
836.782	55.922579
836.980	55.678648
837.178	55.819377
837.376	56.173972
837.574	56.510951
837.772	56.896736
837.970	57.276333
838.168	57.741848
838.366	58.299859
838.564	58.712180
838.762	58.892978
838.960	59.025689
839.158	59.087746
839.356	59.066082
839.554	59.365274
839.752	59.789326
839.949	60.380433
840.147	60.847183
840.345	60.919527
840.543	60.746371
840.741	60.881946
840.938	61.228904
841.136	61.601810
841.334	61.823978
841.532	61.763510
841.729	61.671524
841.927	61.464253
842.125	61.309158
842.322	61.178623
842.520	61.007246
842.718	61.092899
842.915	61.006723
843.113	61.092144
843.310	61.238312
843.508	61.463444
843.705	61.572877
843.903	61.431369
844.100	61.388545
844.298	61.229691
844.495	61.207507
844.693	61.535718
844.890	61.760946
845.087	61.768135
845.285	61.613821
845.482	61.326776
845.679	61.066126
845.877	61.046127
846.074	60.984459
846.271	60.839136
846.469	60.571845
846.666	60.387073
846.863	60.214137
847.060	60.214184
847.257	60.362860
847.455	60.735301
847.652	61.271557
847.849	61.661264
848.046	61.889187
848.243	62.361672
848.440	63.041406
848.637	63.944071
848.834	64.508008
849.031	64.764714
849.228	64.905536
849.425	65.259016
849.622	65.344545
849.819	65.507783
850.016	65.735728
850.213	65.791726
850.410	65.721942
850.607	65.812547
850.804	65.971590
851.001	66.173806
851.198	66.478944
851.394	66.408386
851.591	66.270896
851.788	66.300051
851.985	66.289096
852.181	66.388208
852.378	66.768897
852.575	67.242193
852.772	67.454044
852.968	67.318965
853.165	67.148841
853.362	66.675669
853.558	66.773681
853.755	66.911696
853.951	67.004397
854.148	67.151871
854.345	67.048439
854.541	67.159074
854.738	67.277767
854.934	67.134680
855.131	67.071780
855.327	67.095319
855.523	67.503404
855.720	67.859411
855.916	67.760252
856.113	67.332454
856.309	66.945738
856.505	67.063440
856.702	67.125112
856.898	67.108781
857.094	67.284282
857.291	67.050362
857.487	66.843639
857.683	66.852672
857.879	66.528287
858.076	66.282409
858.272	66.300284
858.468	66.361491
858.664	66.287400
858.860	66.008617
859.056	65.757353
859.253	65.465706
859.449	65.733908
859.645	66.018844
859.841	65.947737
860.037	65.876661
860.233	65.802295
860.429	65.617228
860.625	65.423281
860.821	65.383990
861.017	65.538625
861.213	65.577756
861.409	65.707534
861.604	65.687508
861.800	65.763705
861.996	65.784912
862.192	65.751679
862.388	65.771798
862.584	65.757948
862.779	65.916148
862.975	66.170826
863.171	66.305512
863.367	66.573480
863.562	66.915232
863.758	66.869463
863.954	66.486983
864.149	66.181850
864.345	65.982380
864.541	65.956147
864.736	66.142320
864.932	66.408845
865.127	66.699010
865.323	66.852265
865.518	67.032981
865.714	66.918873
865.910	67.184919
866.105	67.780933
866.300	68.672545
866.496	69.373301
866.691	69.876626
866.887	70.076867
867.082	69.919878
867.277	69.413966
867.473	68.942987
867.668	68.657499
867.864	68.667040
868.059	68.497765
868.254	67.955666
868.449	67.104720
868.645	66.666659
868.840	66.706460
869.035	67.130617
869.230	67.740554
869.425	68.421240
869.621	69.070678
869.816	69.523733
870.011	69.884427
870.206	70.437670
870.401	71.080961
870.596	71.571296
870.791	71.948951
870.986	71.981854
871.181	71.544982
871.376	70.746674
871.571	69.629439
871.766	68.684104
871.961	67.870457
872.156	66.998480
872.351	66.254155
872.546	65.690770
872.741	65.467298
872.936	65.487050
873.130	65.520238
873.325	65.924116
873.520	66.532308
873.715	67.172515
873.910	67.907976
874.104	68.580589
874.299	69.471981
874.494	70.156259
874.688	70.596224
874.883	70.788463
875.078	70.686711
875.272	70.734367
875.467	70.554478
875.662	70.505120
875.856	70.792012
876.051	70.700955
876.245	70.549723
876.440	70.437963
876.634	70.554557
876.829	70.804344
877.023	71.062029
877.218	71.517065
877.412	71.909614
877.607	72.348458
877.801	72.792036
877.995	72.847445
878.190	72.835719
878.384	72.880967
878.578	72.845092
878.773	72.646243
878.967	72.431996
879.161	72.382473
879.356	72.019601
879.550	71.287018
879.744	70.652406
879.938	69.919580
880.133	69.547274
880.327	69.492093
880.521	69.210688
880.715	68.932426
880.909	68.437539
881.103	68.187601
881.297	67.956060
881.491	68.050403
881.685	68.471551
881.880	68.671337
882.073	68.812636
882.267	68.571306
882.461	68.236915
882.655	68.332808
882.849	68.933707
883.043	69.526033
883.237	69.698454
883.431	70.158020
883.625	70.572763
883.819	70.704311
884.013	70.788188
884.206	70.826604
884.400	70.826863
884.594	71.008701
884.788	71.237279
884.982	70.601989
885.175	70.374870
885.369	70.842466
885.563	70.990777
885.756	70.609232
885.950	70.629246
886.144	71.132544
886.337	71.475186
886.531	72.050829
886.724	72.681238
886.918	72.956012
887.112	73.568871
887.305	74.118771
887.499	74.338362
887.692	74.470586
887.885	75.040883
888.079	75.281920
888.272	75.129161
888.466	75.263478
888.659	75.599174
888.853	75.881853
889.046	76.191046
889.239	75.919451
889.433	75.369804
889.626	74.729893
889.819	74.311296
890.013	74.045211
890.206	73.949624
890.399	73.976687
890.592	73.569890
890.785	73.015418
890.979	72.908378
891.172	72.642434
891.365	72.176424
891.558	71.462935
891.751	70.669489
891.944	69.979500
892.137	69.410208
892.330	69.034379
892.524	68.916213
892.717	69.186214
892.910	69.959403
893.103	70.211659
893.296	70.837707
893.488	72.192139
893.681	73.516020
893.874	74.482128
894.067	74.921344
894.260	74.934340
894.453	74.678065
894.646	74.343824
894.839	74.121257
895.031	73.606388
895.224	73.185062
895.417	72.760611
895.610	72.311709
895.802	72.065788
895.995	72.260579
896.188	72.737859
896.381	73.181229
896.573	73.788356
896.766	74.210199
896.958	74.296695
897.151	74.388416
897.344	74.447261
897.536	74.369829
897.729	74.394681
897.921	74.490989
898.114	74.971284
898.306	75.413752
898.499	75.759146
898.691	76.118366
898.884	76.509926
899.076	76.640929
899.269	76.961954
899.461	77.361943
899.653	77.680910
899.846	77.850144
900.038	78.224739
900.230	77.874029
900.423	77.244210
900.615	76.897139
900.807	76.869250
901.000	77.033426
901.192	77.236689
901.384	77.058333
901.576	76.955846
901.768	77.035249
901.961	77.298467
902.153	77.735064
902.345	78.473667
902.537	78.997624
902.729	79.757540
902.921	79.688576
903.113	79.486166
903.305	79.409975
903.497	79.391322
903.689	79.239689
903.881	79.364121
904.073	79.428177
904.265	79.352582
904.457	79.554550
904.649	80.153638
904.841	80.245504
905.033	80.752014
905.224	81.349713
905.416	82.105348
905.608	82.944436
905.800	83.343148
905.992	82.744150
906.183	81.739977
906.375	80.728687
906.567	79.737459
906.759	78.861798
906.950	77.891000
907.142	76.796470
907.334	75.661434
907.525	74.754772
907.717	73.908910
907.909	73.443386
908.100	73.417746
908.292	73.637756
908.483	73.932944
908.675	73.654849
908.866	73.095592
909.058	73.079622
909.249	73.672376
909.441	73.963616
909.632	74.260932
909.824	74.137162
910.015	73.672419
910.206	73.270120
910.398	73.042566
910.589	72.888431
910.780	72.911876
910.972	73.244471
911.163	73.539767
911.354	73.367963
911.546	73.396011
911.737	73.493717
911.928	73.686161
912.119	74.045743
912.310	74.222951
912.502	74.286242
912.693	74.331289
912.884	74.541799
913.075	74.638633
913.266	74.814456
913.457	75.129947
913.648	75.298027
913.839	75.365630
914.030	75.697701
914.221	76.114143
914.412	76.872644
914.603	77.733513
914.794	78.010899
914.985	78.121189
915.176	78.345651
915.367	78.201479
915.558	77.644185
915.749	77.605304
915.940	77.619111
916.130	77.621420
916.321	77.340632
916.512	76.843405
916.703	76.415042
916.893	76.774197
917.084	77.296080
917.275	77.814110
917.466	78.305291
917.656	78.801309
917.847	78.537205
918.038	78.140504
918.228	78.003142
918.419	78.305605
918.609	78.710366
918.800	78.652640
918.990	78.142811
919.181	77.270535
919.372	76.041101
919.562	75.303461
919.753	75.236186
919.943	75.368238
920.133	75.579623
920.324	75.408842
920.514	75.404634
920.705	75.416474
920.895	75.326779
921.085	75.407805
921.276	76.339313
921.466	77.971450
921.656	79.027322
921.847	79.945156
922.037	80.869414
922.227	81.627927
922.417	82.371165
922.608	82.689884
922.798	82.832703
922.988	82.892144
923.178	82.759162
923.368	82.371135
923.558	82.069068
923.748	81.740669
923.939	80.991322
924.129	80.370751
924.319	79.853871
924.509	79.488837
924.699	79.037515
924.889	78.849621
925.079	79.099393
925.269	79.187846
925.459	78.944890
925.648	78.715158
925.838	78.907466
926.028	79.195242
926.218	79.655517
926.408	80.019813
926.598	80.169519
926.788	80.677089
926.977	81.238150
927.167	81.177433
927.357	81.428249
927.547	81.977935
927.736	82.160118
927.926	82.088128
928.116	81.907540
928.305	81.442736
928.495	80.734924
928.685	80.317071
928.874	80.178527
929.064	80.016938
929.253	80.706837
929.443	81.362974
929.633	81.918868
929.822	82.072028
930.012	82.048869
930.201	82.259349
930.391	82.631341
930.580	83.123756
930.769	83.414267
930.959	83.322132
931.148	83.217875
931.338	82.909598
931.527	82.368308
931.716	81.825998
931.906	81.763157
932.095	81.100143
932.284	80.637788
932.474	80.133276
932.663	79.880761
932.852	79.343187
933.041	78.748991
933.230	78.209363
933.420	77.486464
933.609	77.156770
933.798	77.089134
933.987	76.739085
934.176	76.912671
934.365	76.920774
934.554	77.145059
934.743	77.338288
934.932	77.999310
935.121	79.041412
935.310	79.643880
935.499	80.511980
935.688	81.105666
935.877	81.194859
936.066	81.398105
936.255	81.889077
936.444	82.509366
936.633	82.733856
936.822	82.726273
937.010	82.651064
937.199	82.400759
937.388	81.798168
937.577	81.036115
937.766	80.362584
937.954	80.165437
938.143	79.800338
938.332	79.545728
938.520	79.365802
938.709	79.712626
938.898	80.056774
939.086	80.138343
939.275	80.186590
939.464	80.762877
939.652	81.295080
939.841	81.756340
940.029	82.166358
940.218	82.611680
940.406	82.558103
940.595	82.263120
940.783	81.860889
940.972	81.548510
941.160	81.279293
941.349	81.406680
941.537	81.491767
941.725	81.736192
941.914	82.083420
942.102	82.315401
942.290	82.438985
942.479	82.992635
942.667	83.229081
942.855	83.278739
943.043	83.148064
943.232	83.264112
943.420	83.053516
943.608	82.408837
943.796	81.643283
943.984	80.780787
944.172	79.685390
944.361	79.390473
944.549	79.681394
944.737	80.021792
944.925	80.509229
945.113	81.374549
945.301	81.773054
945.489	81.730780
945.677	82.393191
945.865	82.574171
946.053	83.252143
946.241	84.255725
946.429	84.738044
946.617	84.188003
946.805	84.056909
946.992	84.169566
947.180	84.003199
947.368	83.914563
947.556	84.261847
947.744	84.579340
947.931	85.057323
948.119	85.293813
948.307	85.132807
948.495	85.087637
948.682	85.859917
948.870	85.951944
949.058	85.421737
949.245	84.585416
949.433	84.039353
949.621	83.274517
949.808	82.165425
949.996	81.718493
950.183	81.432210
950.371	81.835387
950.558	81.917540
950.746	81.773513
950.933	82.167351
951.121	82.563986
951.308	83.047866
951.496	83.466640
951.683	83.986977
951.870	85.133140
952.058	85.838576
952.245	86.020843
952.433	85.495720
952.620	85.284605
952.807	84.797930
952.994	84.765831
953.182	84.888332
953.369	85.044735
953.556	85.079644
953.743	84.920159
953.931	84.232123
954.118	83.558653
954.305	82.990985
954.492	82.634813
954.679	82.811583
954.866	83.012081
955.053	82.627439
955.240	82.135580
955.427	81.963894
955.615	82.304552
955.802	82.963639
955.989	83.271736
956.175	84.032380
956.362	84.557187
956.549	85.004373
956.736	84.387664
956.923	83.903676
957.110	83.305959
957.297	82.648954
957.484	82.448692
957.671	82.474954
957.857	82.025171
958.044	81.714148
958.231	81.200330
958.418	80.777815
958.604	80.839850
958.791	81.129424
958.978	80.747946
959.165	80.353013
959.351	80.908811
959.538	81.442404
959.724	81.389365
959.911	81.307793
960.098	82.098833
960.284	83.090697
960.471	83.735767
960.657	83.790635
960.844	83.652028
961.030	83.955455
961.217	84.413217
961.403	84.252798
961.590	83.660606
961.776	83.273234
961.963	83.932912
962.149	83.603350
962.335	82.414092
962.522	81.909061
962.708	81.424501
962.894	81.260829
963.081	80.912788
963.267	80.885273
963.453	80.583006
963.639	80.757719
963.826	80.645487
964.012	80.047962
964.198	79.495055
964.384	79.649969
964.570	79.306269
964.756	79.356357
964.943	79.593551
965.129	80.255737
965.315	79.747062
965.501	79.768684
965.687	79.418226
965.873	79.548856
966.059	79.630092
966.245	80.080132
966.431	80.655775
966.617	81.974733
966.803	82.650851
966.989	83.417672
967.174	84.147179
967.360	85.538523
967.546	85.691032
967.732	86.022582
967.918	86.672693
968.104	87.055411
968.289	86.918313
968.475	86.208060
968.661	85.901716
968.847	85.855890
969.032	85.439947
969.218	84.746397
969.404	84.490764
969.589	85.129771
969.775	85.010628
969.961	83.992340
970.146	83.531434
970.332	83.125380
970.517	82.992994
970.703	82.335256
970.888	81.273096
971.074	80.176482
971.260	79.903946
971.445	79.932453
971.630	79.936934
971.816	80.236418
972.001	81.086717
972.187	81.555963
972.372	81.807086
972.557	82.341349
972.743	82.415141
972.928	82.921663
973.113	83.700756
973.299	84.119362
973.484	84.090346
973.669	83.758522
973.854	83.852638
974.040	83.937968
974.225	84.060313
974.410	85.082003
974.595	85.657890
974.780	86.731371
974.965	87.635835
975.151	88.402519
975.336	88.935799
975.521	88.898707
975.706	89.532529
975.891	89.959766
976.076	89.944546
976.261	89.908685
976.446	88.688656
976.631	87.792411
976.816	86.785845
977.001	86.507239
977.186	86.393273
977.370	86.367252
977.555	86.937559
977.740	86.963409
977.925	86.917271
978.110	87.008595
978.295	86.415349
978.479	86.842720
978.664	87.366528
978.849	87.706776
979.034	87.470938
979.218	87.338549
979.403	87.261417
979.588	87.264573
979.772	87.797091
979.957	87.896181
980.141	87.825010
980.326	88.679828
980.511	89.021715
980.695	89.320790
980.880	89.289765
981.064	88.769147
981.249	88.226560
981.433	87.992416
981.618	87.920997
981.802	87.243792
981.987	86.418107
982.171	86.256935
982.355	85.431310
982.540	85.221843
982.724	84.899947
982.908	85.132296
983.093	85.553426
983.277	85.592724
983.461	85.376009
983.646	85.168194
983.830	85.132778
984.014	86.007258
984.198	86.037854
984.382	86.603964
984.567	87.138668
984.751	87.834752
984.935	87.917240
985.119	87.916340
985.303	87.993189
985.487	87.684594
985.671	87.266791
985.855	87.364722
986.039	87.180063
986.223	86.782108
986.407	86.818674
986.591	85.997202
986.775	85.223836
986.959	85.476707
987.143	85.436506
987.327	85.148628
987.511	85.599093
987.695	85.737527
987.879	85.794589
988.062	85.682742
988.246	85.956542
988.430	85.438356
988.614	85.978229
988.797	86.098346
988.981	85.717151
989.165	85.462279
989.349	85.249104
989.532	84.808482
989.716	84.763988
989.900	84.297467
990.083	84.494542
990.267	85.105754
990.450	86.107007
990.634	86.434676
990.817	87.463334
991.001	88.166538
991.184	88.807629
991.368	89.754292
991.551	90.961687
991.735	91.458525
991.918	92.087556
992.102	92.009375
992.285	91.350063
992.469	89.921809
992.652	88.996477
992.835	88.301800
993.019	88.019841
993.202	87.898718
993.385	87.822706
993.568	88.372531
993.752	89.762583
993.935	91.276088
994.118	92.388079
994.301	93.350745
994.484	94.403473
994.668	94.662349
994.851	93.845132
995.034	93.267590
995.217	93.894632
995.400	94.680090
995.583	94.032782
995.766	92.647850
995.949	90.946982
996.132	89.879570
996.315	89.971699
996.498	89.827998
996.681	90.444025
996.864	90.951361
997.047	90.676687
997.230	89.741183
997.413	89.311936
997.596	88.845526
997.778	88.093459
997.961	88.312342
998.144	88.848165
998.327	88.328909
998.510	88.515792
998.692	88.613747
998.875	88.361010
999.058	89.309118
999.241	90.200278
999.423	89.726968
999.606	89.717452
999.789	90.981860
999.971	91.568425
1000.154	92.043019
1000.336	92.521587
1000.519	92.459996
1000.701	92.575889
1000.884	93.713552
1001.067	93.813801
1001.249	93.928153
1001.431	94.239262
1001.614	94.270917
1001.796	94.114011
1001.979	93.766387
1002.161	92.733160
1002.344	92.638886
1002.526	92.359753
1002.708	91.813147
1002.891	91.538326
1003.073	91.955340
1003.255	92.035181
1003.438	91.967991
1003.620	92.080113
1003.802	91.460326
1003.984	90.934709
1004.166	90.964554
1004.349	90.217333
1004.531	91.086900
1004.713	91.856286
1004.895	90.969477
1005.077	89.899346
1005.259	89.597299
1005.441	90.351850
1005.623	91.062701
1005.805	91.091156
1005.987	90.587371
1006.169	90.456941
1006.351	90.368784
1006.533	89.820213
1006.715	89.745956
1006.897	90.657199
1007.079	91.391036
1007.261	91.247645
1007.443	91.575858
1007.625	91.172241
1007.806	91.243808
1007.988	92.228097
1008.170	93.042295
1008.352	93.596023
1008.534	93.062002
1008.715	92.482582
1008.897	92.369547
1009.079	92.839995
1009.260	93.148862
1009.442	92.764310
1009.624	92.747274
1009.805	92.924667
1009.987	92.663613
1010.169	91.780065
1010.350	91.728605
1010.532	92.126079
1010.713	92.559784
1010.895	93.579449
1011.076	94.079827
1011.258	94.703131
1011.439	94.722872
1011.621	95.093618
1011.802	96.141785
1011.983	97.042155
1012.165	97.268924
1012.346	97.759414
1012.527	98.087880
1012.709	98.218848
1012.890	97.065777
1013.071	95.866641
1013.253	94.632980
1013.434	94.210069
1013.615	93.300619
1013.796	92.507995
1013.978	92.133196
1014.159	92.226750
1014.340	91.874555
1014.521	91.938214
1014.702	91.879305
1014.883	91.566027
1015.064	91.072773
1015.245	91.373353
1015.427	91.586922
1015.608	91.308057
1015.789	90.941636
1015.970	90.479559
1016.151	90.159247
1016.332	89.339742
1016.512	88.618010
1016.693	87.453393
1016.874	86.811628
1017.055	86.519267
1017.236	85.768323
1017.417	85.246504
1017.598	85.721545
1017.779	85.589627
1017.959	85.483211
1018.140	85.707237
1018.321	86.353662
1018.502	87.091572
1018.682	88.047013
1018.863	89.021409
1019.044	89.637405
1019.224	90.372285
1019.405	90.902967
1019.586	90.771438
1019.766	91.356732
1019.947	91.176338
1020.127	91.495496
1020.308	91.488315
1020.488	91.325298
1020.669	91.411338
1020.849	91.973423
1021.030	92.256725
1021.210	92.895166
1021.391	93.121198
1021.571	93.157191
1021.752	92.905020
1021.932	92.795650
1022.112	91.231373
1022.293	90.599787
1022.473	90.893132
1022.653	91.387200
1022.834	90.893743
1023.014	91.086734
1023.194	91.745112
1023.374	92.532750
1023.555	93.232029
1023.735	93.240517
1023.915	93.221924
1024.095	94.042295
1024.275	94.909546
1024.455	94.828923
1024.635	94.362359
1024.816	95.039954
1024.996	94.985328
1025.176	93.969214
1025.356	92.409339
1025.536	92.478254
1025.716	92.515847
1025.896	92.606357
1026.076	92.436633
1026.256	91.633093
1026.436	91.118084
1026.615	91.526883
1026.795	91.308227
1026.975	90.751235
1027.155	90.647635
1027.335	91.607429
1027.515	91.060958
1027.695	91.313831
1027.874	91.727847
1028.054	91.935380
1028.234	92.385393
1028.413	92.796035
1028.593	91.622668
1028.773	91.194679
1028.953	92.077472
1029.132	91.903806
1029.312	91.597059
1029.491	91.324369
1029.671	90.441798
1029.851	90.764711
1030.030	91.491493
1030.210	92.007325
1030.389	91.799395
1030.569	91.925487
1030.748	91.122635
1030.928	90.401089
1031.107	91.348455
1031.286	91.001924
1031.466	91.157782
1031.645	91.630022
1031.825	91.054247
1032.004	91.478898
1032.183	91.163093
1032.363	91.893059
1032.542	92.856796
1032.721	94.523060
1032.900	94.715070
1033.080	94.486929
1033.259	94.364940
1033.438	95.250909
1033.617	96.665203
1033.796	98.358757
1033.975	98.066811
1034.155	98.220987
1034.334	97.768462
1034.513	96.361260
1034.692	94.948929
1034.871	95.429194
1035.050	94.142969
1035.229	94.575287
1035.408	93.825452
1035.587	91.922727
1035.766	90.499965
1035.945	90.610882
1036.124	90.935463
1036.303	91.149234
1036.481	93.208486
1036.660	94.394909
1036.839	94.139985
1037.018	95.102674
1037.197	94.960153
1037.376	94.756953
1037.554	95.469422
1037.733	94.977458
1037.912	94.626125
1038.091	93.437795
1038.269	92.710341
1038.448	91.881034
1038.627	91.280624
1038.805	90.398174
1038.984	89.377434
1039.162	88.998300
1039.341	89.469372
1039.520	90.622007
1039.698	91.384131
1039.877	90.591197
1040.055	91.782901
1040.234	93.096276
1040.412	93.108423
1040.591	93.084981
1040.769	93.921191
1040.947	95.091979
1041.126	94.920460
1041.304	95.110516
1041.483	94.844550
1041.661	94.657283
1041.839	94.973249
1042.017	94.529786
1042.196	94.005846
1042.374	93.699534
1042.552	92.517386
1042.730	92.400364
1042.909	92.831160
1043.087	93.567796
1043.265	93.751042
1043.443	93.181399
1043.621	93.339332
1043.799	93.030137
1043.978	93.557633
1044.156	93.545415
1044.334	92.332020
1044.512	93.204401
1044.690	92.811081
1044.868	91.699416
1045.046	91.161709
1045.224	90.319088
1045.402	89.453223
1045.580	89.711539
1045.758	89.826781
1045.935	88.917478
1046.113	87.960511
1046.291	89.128256
1046.469	88.981060
1046.647	88.950986
1046.825	88.888371
1047.002	88.928818
1047.180	88.766546
1047.358	88.335293
1047.536	86.833160
1047.713	87.713222
1047.891	88.163542
1048.069	88.707523
1048.246	88.475257
1048.424	88.366348
1048.602	88.347691
1048.779	87.963858
1048.957	87.381877
1049.134	87.807562
1049.312	88.906589
1049.489	89.834954
1049.667	88.611745
1049.844	88.318266
1050.022	87.222148
1050.199	86.759328
1050.377	86.934505
1050.554	87.814600
1050.731	88.349965
1050.909	89.198359
1051.086	89.887777
1051.263	90.130545
1051.441	90.995068
1051.618	91.656113
1051.795	91.631615
1051.973	93.046204
1052.150	93.542209
1052.327	93.072954
1052.504	92.083607
1052.681	91.731082
1052.859	90.658537
1053.036	89.566712
1053.213	88.888764
1053.390	87.884955
1053.567	87.724182
1053.744	88.327013
1053.921	87.672135
1054.098	86.940489
1054.275	87.032800
1054.452	86.974004
1054.629	87.423102
1054.806	88.185600
1054.983	88.464050
1055.160	89.154380
1055.337	89.076321
1055.514	88.562635
1055.691	88.230597
1055.868	88.981838
1056.044	89.796237
1056.221	90.973722
1056.398	91.386867
1056.575	91.170751
1056.751	90.917103
1056.928	90.631352
1057.105	90.629311
1057.282	91.216512
1057.458	91.202707
1057.635	90.954731
1057.812	90.028005
1057.988	89.910954
1058.165	89.485283
1058.341	89.426885
1058.518	90.080276
1058.694	90.598042
1058.871	91.041302
1059.047	90.765661
1059.224	90.260516
1059.401	90.522036
1059.577	90.106643
1059.753	89.770305
1059.930	89.225681
1060.106	88.588828
1060.282	88.241088
1060.459	87.061444
1060.635	85.759515
1060.812	85.067239
1060.988	85.366269
1061.164	85.467200
1061.340	85.282599
1061.517	85.070073
1061.693	85.152257
1061.869	85.207319
1062.045	85.357860
1062.221	84.921293
1062.398	85.001219
1062.574	85.891391
1062.750	86.292763
1062.926	85.447521
1063.102	85.122895
1063.278	85.700372
1063.454	86.644452
1063.630	87.422349
1063.806	87.649346
1063.982	87.571835
1064.158	87.676038
1064.334	88.077022
1064.510	87.711087
1064.686	87.727055
1064.862	87.920248
1065.038	87.660745
1065.214	87.388118
1065.389	86.700849
1065.565	85.589309
1065.741	85.173959
1065.917	84.976624
1066.093	85.177833
1066.268	85.191226
1066.444	84.867087
1066.620	84.476559
1066.795	84.685079
1066.971	85.167185
1067.147	85.083596
1067.322	85.413891
1067.498	86.330273
1067.673	87.062137
1067.849	87.199800
1068.025	86.985366
1068.200	87.169947
1068.376	87.969545
1068.551	88.090695
1068.727	87.443368
1068.902	86.345219
1069.078	86.056068
1069.253	85.544898
1069.428	85.716240
1069.604	84.923513
1069.779	83.811233
1069.954	84.372267
1070.130	84.544571
1070.305	84.659833
1070.480	85.135481
1070.656	85.522208
1070.831	86.141446
1071.006	86.601166
1071.181	87.215681
1071.357	86.956393
1071.532	86.499169
1071.707	87.018502
1071.882	86.470503
1072.057	85.716141
1072.232	84.764783
1072.407	84.746740
1072.582	84.600270
1072.757	85.488035
1072.932	85.117423
1073.107	84.535710
1073.282	83.677703
1073.457	84.208359
1073.632	83.675482
1073.807	82.544067
1073.982	82.284936
1074.157	82.338322
1074.332	81.033268
1074.507	80.807439
1074.682	80.112119
1074.856	79.551542
1075.031	79.112063
1075.206	79.525502
1075.381	79.010164
1075.556	79.439577
1075.730	80.635648
1075.905	81.203736
1076.080	82.071290
1076.254	83.235366
1076.429	83.147514
1076.604	82.269609
1076.778	82.557289
1076.953	83.703262
1077.127	83.984943
1077.302	84.215582
1077.477	84.461545
1077.651	84.607637
1077.826	83.998844
1078.000	82.999547
1078.175	82.146756
1078.349	82.085448
1078.523	83.140384
1078.698	83.290134
1078.872	82.715208
1079.047	81.952454
1079.221	82.408627
1079.395	81.761230
1079.570	81.866198
1079.744	82.104217
1079.918	82.444509
1080.092	83.599228
1080.267	84.194232
1080.441	84.050601
1080.615	84.179299
1080.789	84.374748
1080.963	85.443350
1081.137	85.738913
1081.312	86.977183
1081.486	87.267662
1081.660	87.372597
1081.834	87.635689
1082.008	87.077402
1082.182	86.171351
1082.356	85.559952
1082.530	85.353649
1082.704	84.729439
1082.878	84.090782
1083.052	83.643391
1083.226	83.407194
1083.400	82.957853
1083.573	82.743335
1083.747	81.824614
1083.921	81.418190
1084.095	81.570683
1084.269	81.931379
1084.443	82.052583
1084.616	81.794512
1084.790	81.621443
1084.964	81.665484
1085.138	81.151439
1085.311	80.526964
1085.485	79.787919
1085.659	79.995149
1085.832	80.150052
1086.006	79.966659
1086.179	79.576612
1086.353	79.181054
1086.527	79.777348
1086.700	79.931029
1086.874	79.358663
1087.047	79.083748
1087.221	79.452344
1087.394	79.621578
1087.568	79.830302
1087.741	79.771773
1087.914	79.587034
1088.088	79.342682
1088.261	79.512646
1088.435	79.327485
1088.608	78.487482
1088.781	78.041446
1088.954	77.758024
1089.128	77.830286
1089.301	78.411343
1089.474	77.803006
1089.647	77.147225
1089.821	77.256632
1089.994	77.140568
1090.167	76.370099
1090.340	76.314299
1090.513	77.072285
1090.686	78.014527
1090.859	78.660201
1091.032	78.032556
1091.206	77.549775
1091.379	77.908984
1091.552	78.760219
1091.725	78.971193
1091.898	78.606554
1092.071	79.068971
1092.244	78.504541
1092.416	77.444024
1092.589	76.269028
1092.762	76.396917
1092.935	77.161913
1093.108	77.201437
1093.281	76.596847
1093.453	75.577885
1093.626	74.713608
1093.799	75.212385
1093.972	75.297506
1094.145	75.902609
1094.317	76.687012
1094.490	77.420494
1094.663	76.492405
1094.835	75.700199
1095.008	75.060803
1095.181	75.218708
1095.353	75.363444
1095.526	76.233539
1095.698	76.069531
1095.871	75.677953
1096.043	75.063335
1096.216	74.261931
1096.388	73.856036
1096.561	73.850532
1096.733	73.930731
1096.906	74.797789
1097.078	74.957782
1097.250	75.172788
1097.423	74.821961
1097.595	74.843243
1097.768	74.821759
1097.940	74.941019
1098.112	75.672196
1098.284	76.067704
1098.457	75.964743
1098.629	75.526952
1098.801	74.734954
1098.973	74.767469
1099.146	74.368677
1099.318	74.336951
1099.490	74.490530
1099.662	74.404252
1099.834	74.400790
1100.006	74.266875
1100.178	73.742538
1100.350	73.762050
1100.522	73.429859
1100.694	73.207006
1100.866	72.153509
1101.038	71.185201
1101.210	70.653605
1101.382	70.028652
1101.554	69.514137
1101.726	69.083081
1101.898	68.492803
1102.070	68.011816
1102.241	67.794179
1102.413	68.003777
1102.585	68.406834
1102.757	69.435223
1102.929	70.404610
1103.100	71.066327
1103.272	71.407348
1103.444	71.986796
1103.616	72.078824
1103.787	72.076490
1103.959	72.030872
1104.130	72.253599
1104.302	72.654408
1104.474	72.605222
1104.645	71.706527
1104.817	71.214759
1104.988	70.359320
1105.160	69.951910
1105.331	69.250708
1105.503	69.185156
1105.674	69.068874
1105.846	69.148811
1106.017	68.758010
1106.189	68.391806
1106.360	68.121640
1106.531	67.735430
1106.703	67.484546
1106.874	67.692277
1107.045	68.133896
1107.217	68.536972
1107.388	68.155814
1107.559	68.053060
1107.730	68.060195
1107.902	68.118674
1108.073	67.954278
1108.244	67.726851
1108.415	68.137069
1108.586	68.401691
1108.757	67.863041
1108.929	67.519163
1109.100	67.090748
1109.271	67.007922
1109.442	67.053546
1109.613	66.692466
1109.784	66.207272
1109.955	65.955093
1110.126	65.746209
1110.297	65.585039
1110.468	65.468748
1110.639	65.797040
1110.809	65.263724
1110.980	64.843735
1111.151	64.452187
1111.322	63.991406
1111.493	64.121279
1111.664	64.179429
1111.834	64.313323
1112.005	64.766868
1112.176	64.944182
1112.347	65.100917
1112.517	64.707381
1112.688	64.618528
1112.859	64.829444
1113.029	65.197559
1113.200	65.498134
1113.371	65.280513
1113.541	65.226174
1113.712	64.782310
1113.882	64.010056
1114.053	63.667560
1114.223	63.148873
1114.394	63.306765
1114.564	63.285123
1114.735	63.154943
1114.905	63.059732
1115.076	63.038899
1115.246	63.196238
1115.416	63.465701
1115.587	63.653430
1115.757	64.600978
1115.927	64.800793
1116.098	65.146445
1116.268	65.203940
1116.438	64.733617
1116.609	63.912294
1116.779	63.398198
1116.949	63.421017
1117.119	63.842849
1117.289	63.427860
1117.459	63.009228
1117.630	62.369839
1117.800	61.997443
1117.970	61.409537
1118.140	61.376031
1118.310	61.658210
1118.480	62.171182
1118.650	62.431660
1118.820	62.139652
1118.990	61.405854
1119.160	60.610563
1119.330	60.259349
1119.500	59.932137
1119.670	60.003593
1119.840	60.207854
1120.010	60.139391
1120.179	60.101453
1120.349	60.136716
1120.519	59.842914
1120.689	59.412045
1120.859	59.285063
1121.028	59.421303
1121.198	59.624713
1121.368	59.697935
1121.538	59.956746
1121.707	59.993778
1121.877	59.780768
1122.047	59.538793
1122.216	59.881104
1122.386	60.292594
1122.555	60.250934
1122.725	60.679806
1122.894	61.309009
1123.064	61.178861
1123.233	60.913924
1123.403	61.010924
1123.573	60.810860
1123.742	60.572548
1123.911	60.573883
1124.081	59.965796
1124.250	59.235854
1124.419	59.122802
1124.589	58.621763
1124.758	58.632885
1124.927	58.868657
1125.097	59.313392
1125.266	58.853151
1125.435	58.746529
1125.605	58.763803
1125.774	59.027724
1125.943	59.301571
1126.112	59.611861
1126.281	59.555250
1126.450	59.409968
1126.620	59.086437
1126.789	58.775559
1126.958	58.229370
1127.127	57.647807
1127.296	57.142736
1127.465	57.118846
1127.634	57.132409
1127.803	56.472133
1127.972	55.808604
1128.141	55.875737
1128.310	56.132514
1128.479	55.797787
1128.648	55.975662
1128.817	56.004237
1128.985	55.885583
1129.154	55.465364
1129.323	54.778910
1129.492	54.160131
1129.661	54.004855
1129.829	54.561475
1129.998	54.689211
1130.167	54.223335
1130.336	54.174502
1130.504	53.873881
1130.673	53.766378
1130.842	53.965741
1131.010	54.515192
1131.179	54.793225
1131.347	55.036824
1131.516	55.534845
1131.685	55.013163
1131.853	54.583263
1132.022	54.324968
1132.190	54.138126
1132.359	53.840651
1132.527	53.091223
1132.696	52.440129
1132.864	51.950294
1133.032	51.565854
1133.201	51.235889
1133.369	50.762867
1133.537	50.863350
1133.706	50.414296
1133.874	50.141895
1134.042	50.361874
1134.211	50.177342
1134.379	50.022403
1134.547	49.745073
1134.715	49.503042
1134.884	49.550795
1135.052	49.222368
1135.220	49.121356
1135.388	48.886162
1135.556	48.814627
1135.724	48.888312
1135.892	48.254187
1136.060	48.234407
1136.228	48.862635
1136.396	49.606176
1136.564	49.653782
1136.732	49.387251
1136.900	49.120656
1137.068	48.767795
1137.236	48.586073
1137.404	48.802208
1137.572	48.978894
1137.740	49.022148
1137.908	49.052683
1138.076	48.740442
1138.243	47.935880
1138.411	47.889892
1138.579	47.929762
1138.747	48.114038
1138.914	48.178430
1139.082	48.117840
1139.250	47.944110
1139.417	47.765332
1139.585	48.150241
1139.753	48.849531
1139.920	49.004635
1140.088	49.676119
1140.256	49.890824
1140.423	49.713005
1140.591	49.671448
1140.758	49.739895
1140.926	49.810121
1141.093	50.136454
1141.261	50.355174
1141.428	49.687327
1141.596	48.468410
1141.763	48.106365
1141.930	47.615966
1142.098	47.230166
1142.265	47.431039
1142.432	47.631711
1142.600	47.882402
1142.767	47.575631
1142.934	46.948916
1143.102	46.354841
1143.269	46.376378
1143.436	46.535646
1143.603	46.264501
1143.771	46.454010
1143.938	46.838088
1144.105	46.585055
1144.272	46.026465
1144.439	45.308017
1144.606	45.591162
1144.773	45.162948
1144.940	44.806909
1145.107	44.738089
1145.274	44.504477
1145.441	44.283156
1145.608	43.914316
1145.775	42.774923
1145.942	41.861587
1146.109	41.356623
1146.276	41.456167
1146.443	41.191536
1146.610	41.691779
1146.776	41.986366
1146.943	41.868286
1147.110	41.844816
1147.277	41.670672
1147.444	41.189306
1147.610	41.954746
1147.777	42.867868
1147.944	43.248032
1148.110	43.397283
1148.277	43.637525
1148.444	43.443981
1148.610	43.431297
1148.777	43.641102
1148.944	43.618571
1149.110	43.998246
1149.277	44.329866
1149.443	44.449552
1149.610	44.019626
1149.776	43.913309
1149.943	43.577161
1150.109	43.078230
1150.276	43.146181
1150.442	42.927508
1150.608	42.348289
1150.775	42.122019
1150.941	41.713729
1151.107	41.081540
1151.274	40.473593
1151.440	40.693965
1151.606	40.709994
1151.773	40.455552
1151.939	40.269415
1152.105	40.017339
1152.271	40.020776
1152.438	40.016095
1152.604	39.836524
1152.770	39.640034
1152.936	40.173177
1153.102	40.084294
1153.268	39.660442
1153.434	39.283267
1153.600	38.932515
1153.766	38.521521
1153.932	38.199077
1154.098	38.020056
1154.264	38.068867
1154.430	37.930021
1154.596	37.895623
1154.762	37.409221
1154.928	37.534414
1155.094	37.658622
1155.260	37.444774
1155.426	37.732995
1155.591	37.551682
1155.757	37.456038
1155.923	37.449132
1156.089	37.479624
1156.255	37.497928
1156.420	37.477245
1156.586	37.288619
1156.752	36.956883
1156.917	36.614338
1157.083	37.110071
1157.249	36.808140
1157.414	36.958553
1157.580	37.486273
1157.745	37.293117
1157.911	36.975616
1158.076	37.094421
1158.242	37.257517
1158.407	37.423881
1158.573	37.390318
1158.738	37.046239
1158.904	36.140494
1159.069	36.293377
1159.235	36.309957
1159.400	35.743985
1159.565	35.641537
1159.731	35.467437
1159.896	34.994948
1160.061	34.186035
1160.227	34.006423
1160.392	33.911048
1160.557	34.206586
1160.722	34.727412
1160.888	34.504840
1161.053	34.189670
1161.218	34.012404
1161.383	34.013308
1161.548	34.010035
1161.713	34.144757
1161.878	34.483691
1162.043	34.642969
1162.208	34.595029
1162.374	34.158294
1162.539	33.698680
1162.704	33.745616
1162.869	34.027447
1163.033	34.407464
1163.198	34.053964
1163.363	34.050916
1163.528	33.922996
1163.693	33.854764
1163.858	33.735543
1164.023	33.373099
1164.188	33.059590
1164.353	32.877641
1164.517	32.785490
1164.682	32.857543
1164.847	31.871582
1165.011	31.555089
1165.176	31.231541
1165.341	30.759590
1165.506	30.729979
1165.670	30.405179
1165.835	30.627544
1166.000	31.280026
1166.164	31.307912
1166.329	31.007359
1166.493	30.418302
1166.658	30.834343
1166.822	31.087134
1166.987	31.114283
1167.151	31.405701
1167.316	31.334875
1167.480	30.985013
1167.645	30.757578
1167.809	30.916011
1167.973	31.795746
1168.138	31.935041
1168.302	31.839074
1168.466	31.854728
1168.631	31.806528
1168.795	31.711842
1168.959	31.773875
1169.124	31.844293
1169.288	32.126870
1169.452	31.554811
1169.616	30.827904
1169.780	30.329354
1169.944	30.433024
1170.109	30.629712
1170.273	30.517160
1170.437	30.553398
1170.601	30.508269
1170.765	30.580602
1170.929	30.542436
1171.093	30.610933
1171.257	31.087184
1171.421	31.043992
1171.585	30.700751
1171.749	30.916178
1171.913	31.133581
1172.077	31.001851
1172.240	30.904258
1172.404	31.084019
1172.568	30.887522
1172.732	30.259870
1172.896	30.226381
1173.060	30.082724
1173.223	29.566637
1173.387	29.172424
1173.551	28.495493
1173.715	27.963122
1173.878	27.736031
1174.042	27.546150
1174.206	27.216981
1174.369	27.204093
1174.533	27.837502
1174.696	27.903404
1174.860	28.250889
1175.023	28.961232
1175.187	29.208162
1175.351	29.522763
1175.514	30.250467
1175.677	30.462144
1175.841	30.551804
1176.004	30.882036
1176.168	30.884551
1176.331	30.731520
1176.495	30.289978
1176.658	30.108146
1176.821	29.904270
1176.985	29.691149
1177.148	29.182530
1177.311	28.630280
1177.474	28.054945
1177.638	27.803170
1177.801	27.446671
1177.964	27.086777
1178.127	26.852378
1178.291	26.559524
1178.454	26.309971
1178.617	26.625867
1178.780	26.978820
1178.943	27.170024
1179.106	27.010995
1179.269	27.614228
1179.432	27.791736
1179.595	28.113640
1179.758	28.406780
1179.921	28.543393
1180.084	28.836285
1180.247	29.187574
1180.410	29.098882
1180.573	28.929207
1180.736	28.843904
1180.899	28.858002
1181.061	29.023466
1181.224	29.102215
1181.387	29.102748
1181.550	29.320908
1181.713	29.488023
1181.875	29.635277
1182.038	29.561384
1182.201	29.422455
1182.363	29.165638
1182.526	29.284122
1182.689	29.440757
1182.851	29.234397
1183.014	29.068916
1183.177	28.959638
1183.339	28.560187
1183.502	28.420161
1183.664	28.285149
1183.827	27.709742
1183.989	27.464387
1184.152	27.581036
1184.314	27.840333
1184.477	27.994886
1184.639	27.894140
1184.801	27.928651
1184.964	27.754798
1185.126	28.231667
1185.288	28.313319
1185.451	28.628004
1185.613	29.541830
1185.775	29.875596
1185.938	29.617016
1186.100	29.108355
1186.262	28.736480
1186.424	28.864189
1186.586	29.241533
1186.749	29.544153
1186.911	29.405883
1187.073	29.031529
1187.235	28.556401
1187.397	27.752438
1187.559	27.673307
1187.721	28.374326
1187.883	28.770890
1188.045	29.045207
1188.207	29.047320
1188.369	28.883923
1188.531	28.625993
1188.693	28.397905
1188.855	28.766297
1189.017	28.999449
1189.179	29.452784
1189.341	29.485755
1189.502	29.270010
1189.664	29.081391
1189.826	29.039366
1189.988	28.690602
1190.150	28.495792
1190.311	28.390996
1190.473	28.283344
1190.635	28.129679
1190.796	27.865714
1190.958	27.641264
1191.120	27.490789
1191.281	27.413728
1191.443	27.240020
1191.604	27.315192
1191.766	27.655711
1191.928	27.209178
1192.089	27.075240
1192.251	27.428239
1192.412	27.143004
1192.574	27.526505
1192.735	27.821828
1192.896	28.169521
1193.058	28.270997
1193.219	28.477845
1193.381	28.445416
1193.542	28.338113
1193.703	28.998644
1193.865	29.255579
1194.026	28.879185
1194.187	29.092635
1194.349	29.318975
1194.510	29.204357
1194.671	28.643370
1194.832	28.400376
1194.993	28.600961
1195.155	29.012327
1195.316	29.149060
1195.477	29.112310
1195.638	29.076616
1195.799	29.038725
1195.960	29.418419
1196.121	29.151511
1196.282	29.081818
1196.443	29.493035
1196.604	29.896403
1196.765	30.153048
1196.926	29.465741
1197.087	29.245427
1197.248	29.107283
1197.409	29.041928
1197.570	29.473110
1197.730	29.703495
1197.891	30.120230
1198.052	30.488847
1198.213	30.618251
1198.374	30.449000
1198.534	30.253328
1198.695	30.374613
1198.856	30.284242
1199.016	30.302603
1199.177	30.526932
1199.338	30.623765
1199.498	30.705640
1199.659	30.630047
1199.820	30.615015
1199.980	30.895971
1200.141	31.104386
1200.301	31.438314
1200.462	32.039835
1200.622	32.575854
1200.783	32.828218
1200.943	32.791236
1201.104	32.948424
1201.264	32.641023
1201.424	32.423620
1201.585	32.575357
1201.745	32.338781
1201.906	32.496842
1202.066	32.801747
1202.226	32.720237
1202.386	32.463955
1202.547	32.095765
1202.707	32.174551
1202.867	32.047125
1203.027	32.433439
1203.188	32.889778
1203.348	32.683116
1203.508	32.593453
1203.668	32.598352
1203.828	32.193241
1203.988	32.358885
1204.148	32.938833
1204.308	33.585091
1204.468	33.562883
1204.628	33.476614
1204.788	33.107731
1204.948	32.551342
1205.108	32.669943
1205.268	32.939988
1205.428	32.835840
1205.588	32.317530
1205.748	31.760314
1205.908	31.678375
1206.068	31.749062
1206.228	32.257136
1206.387	32.537555
1206.547	32.302930
1206.707	32.855754
1206.867	33.149839
1207.026	33.109360
1207.186	32.894473
1207.346	33.227667
1207.505	34.076753
1207.665	34.021733
1207.825	33.574211
1207.984	33.553039
1208.144	33.514619
1208.303	33.739119
1208.463	33.828889
1208.622	33.827843
1208.782	34.296675
1208.941	34.822229
1209.101	34.948102
1209.260	34.233885
1209.420	34.089380
1209.579	34.233252
1209.739	34.058719
1209.898	33.619708
1210.057	33.754226
1210.217	34.069746
1210.376	33.678449
1210.535	33.410836
1210.694	33.882103
1210.854	34.129637
1211.013	34.493730
1211.172	34.653342
1211.331	35.006147
1211.490	35.049346
1211.650	35.863506
1211.809	35.855164
1211.968	35.275531
1212.127	35.677547
1212.286	35.247520
1212.445	34.937234
1212.604	35.179995
1212.763	35.265304
1212.922	35.284478
1213.081	34.937883
1213.240	35.134793
1213.399	35.316144
1213.558	35.845367
1213.717	36.152171
1213.876	35.891996
1214.035	36.528373
1214.194	36.326008
1214.352	35.706679
1214.511	35.584321
1214.670	35.873793
1214.829	36.326037
1214.988	36.473910
1215.146	35.999176
1215.305	35.816514
1215.464	35.981853
1215.622	36.234503
1215.781	35.730411
1215.940	35.651738
1216.098	36.302615
1216.257	36.546913
1216.415	36.414552
1216.574	36.139001
1216.732	36.139970
1216.891	35.737082
1217.049	35.335889
1217.208	34.990682
1217.366	35.337006
1217.525	35.983810
1217.683	36.224681
1217.842	35.957914
1218.000	35.820127
1218.158	35.806574
1218.317	35.836812
1218.475	35.679222
1218.633	36.220962
1218.792	36.811287
1218.950	37.044341
1219.108	36.625533
1219.266	36.564044
1219.425	36.337277
1219.583	36.201629
1219.741	36.359529
1219.899	36.382595
1220.057	36.737836
1220.215	37.043535
1220.373	37.188111
1220.531	37.151483
1220.689	37.539331
1220.847	37.561363
1221.005	37.103767
1221.163	37.568518
1221.322	37.948450
1221.479	37.747696
1221.637	37.845962
1221.795	37.823258
1221.953	37.980520
1222.111	38.104723
1222.269	38.116827
1222.427	37.907382
1222.584	38.769261
1222.742	39.312702
1222.900	39.170149
1223.058	39.774059
1223.216	40.864399
1223.373	41.116678
1223.531	41.193555
1223.689	40.735526
1223.846	40.630647
1224.004	40.741194
1224.162	40.805768
1224.319	39.965850
1224.477	39.881126
1224.634	39.915040
1224.792	39.427404
1224.949	38.978259
1225.107	38.768011
1225.264	38.956898
1225.422	39.228605
1225.579	39.575780
1225.737	39.675568
1225.894	39.505506
1226.052	39.657275
1226.209	39.900477
1226.366	40.028826
1226.523	40.293768
1226.681	40.953726
1226.838	41.226973
1226.995	40.997223
1227.153	40.845734
1227.310	40.271317
1227.467	40.061959
1227.624	40.176780
1227.781	40.409278
1227.938	40.759970
1228.096	41.332461
1228.253	41.560561
1228.410	40.973508
1228.567	41.589413
1228.724	42.003038
1228.881	42.732490
1229.038	43.345456
1229.195	43.216840
1229.352	43.511755
1229.509	43.559747
1229.666	43.742098
1229.823	43.727085
1229.980	43.062037
1230.136	42.544220
1230.293	41.943623
1230.450	41.808820
1230.607	41.750307
1230.764	41.822291
1230.921	42.385041
1231.077	42.506246
1231.234	42.537453
1231.391	42.353302
1231.547	42.491150
1231.704	43.167233
1231.861	43.718659
1232.018	44.090942
1232.174	44.532910
1232.331	44.569970
1232.487	44.870762
1232.644	45.015759
1232.800	45.159005
1232.957	45.452532
1233.113	45.182713
1233.270	44.886991
1233.426	44.583058
1233.583	44.366407
1233.739	44.466671
1233.896	43.906104
1234.052	43.730134
1234.208	44.015486
1234.365	44.335677
1234.521	44.495905
1234.677	44.798429
1234.834	45.263773
1234.990	45.703058
1235.146	45.981195
1235.302	45.932729
1235.459	46.292231
1235.615	47.676300
1235.771	48.378130
1235.927	48.462677
1236.083	48.164008
1236.239	48.172976
1236.396	48.245139
1236.552	48.131454
1236.708	47.433513
1236.864	47.435176
1237.020	48.172608
1237.176	47.691529
1237.332	46.868237
1237.488	46.441259
1237.644	46.055251
1237.799	46.249188
1237.955	46.039099
1238.111	45.261190
1238.267	45.393925
1238.423	46.213307
1238.579	46.343030
1238.734	46.081257
1238.890	46.079327
1239.046	45.802756
1239.202	45.577904
1239.357	45.462953
1239.513	45.452355
1239.669	46.089196
1239.824	46.359261
1239.980	46.021634
1240.136	45.474040
1240.291	45.439062
1240.447	45.682476
1240.603	46.680532
1240.758	47.264843
1240.914	47.233240
1241.069	47.357226
1241.225	47.219605
1241.380	46.761599
1241.535	47.217828
1241.691	47.786861
1241.846	47.806873
1242.002	47.536950
1242.157	47.805895
1242.313	46.722356
1242.468	46.107556
1242.623	46.283954
1242.778	46.243480
1242.934	46.667146
1243.089	47.325166
1243.244	47.382956
1243.399	46.867323
1243.554	46.500410
1243.710	46.928972
1243.865	46.296938
1244.020	46.495962
1244.175	46.252120
1244.330	46.319285
1244.485	46.862971
1244.640	46.728198
1244.795	46.649921
1244.950	46.956330
1245.105	47.349455
1245.260	48.788759
1245.415	49.195431
1245.570	49.537524
1245.725	49.436978
1245.880	50.082510
1246.035	50.331995
1246.190	49.983788
1246.345	50.184917
1246.499	50.118320
1246.654	49.792789
1246.809	49.797355
1246.964	49.022599
1247.118	48.735647
1247.273	49.158106
1247.428	49.961319
1247.583	50.304982
1247.737	50.961381
1247.892	51.723112
1248.047	52.101574
1248.201	52.006003
1248.356	52.331155
1248.510	52.130814
1248.665	52.398059
1248.819	52.472136
1248.974	52.597051
1249.128	52.449069
1249.283	52.140254
1249.437	51.390288
1249.592	50.861496
1249.746	50.419033
1249.900	50.347819
1250.055	50.452215
1250.209	50.974049
1250.363	50.626096
1250.518	50.396223
1250.672	49.967925
1250.826	49.964539
1250.981	50.414941
1251.135	50.773196
1251.289	50.678789
1251.443	50.786768
1251.597	50.983792
1251.751	51.013736
1251.906	51.124754
1252.060	51.533342
1252.214	51.375247
1252.368	52.238455
1252.522	52.365728
1252.676	52.022436
1252.830	52.210394
1252.984	52.339371
1253.138	51.696001
1253.292	51.762403
1253.446	52.587078
1253.600	52.043653
1253.754	52.684332
1253.907	53.155383
1254.061	52.037857
1254.215	51.831662
1254.369	52.293721
1254.523	52.249743
1254.677	52.350987
1254.830	52.766009
1254.984	53.098312
1255.138	52.459472
1255.292	53.535196
1255.445	53.064156
1255.599	53.055936
1255.752	53.893551
1255.906	54.310503
1256.060	54.556553
1256.213	54.433109
1256.367	54.771686
1256.520	55.567248
1256.674	55.833405
1256.827	55.883669
1256.981	55.344534
1257.134	55.891915
1257.288	57.303630
1257.441	57.416565
1257.594	56.601564
1257.748	55.983707
1257.901	56.745270
1258.055	56.810150
1258.208	56.361413
1258.361	55.506147
1258.515	55.196537
1258.668	54.511499
1258.821	54.068873
1258.974	54.227577
1259.127	54.487018
1259.281	55.262059
1259.434	55.440981
1259.587	54.913993
1259.740	55.134710
1259.893	54.985401
1260.046	55.705518
1260.199	56.372771
1260.352	57.005672
1260.505	57.501700
1260.658	56.882589
1260.811	57.006108
1260.964	56.732386
1261.117	57.803953
1261.270	58.725071
1261.423	58.948709
1261.576	59.921874
1261.729	60.537000
1261.882	59.883547
1262.035	60.799767
1262.188	61.114164
1262.340	61.693146
1262.493	62.093573
1262.646	63.101260
1262.798	62.312309
1262.951	62.209944
1263.104	61.970251
1263.257	61.642924
1263.409	61.122825
1263.562	61.507558
1263.714	61.706343
1263.867	62.002325
1264.020	61.055967
1264.172	60.955654
1264.325	60.965289
1264.477	61.526882
1264.630	60.766775
1264.782	60.719246
1264.935	60.965275
1265.087	60.549518
1265.240	59.913913
1265.392	59.450551
1265.544	58.649031
1265.697	58.726654
1265.849	57.932075
1266.001	56.810928
1266.154	56.562492
1266.306	57.800890
1266.458	57.784155
1266.610	56.871620
1266.762	56.947051
1266.915	57.390428
1267.067	56.666791
1267.219	56.209042
1267.371	56.198138
1267.523	57.031828
1267.675	58.073014
1267.828	57.596208
1267.979	57.117574
1268.132	57.355840
1268.284	58.122767
1268.436	57.815682
1268.588	57.877390
1268.740	58.317519
1268.891	58.147285
1269.043	58.009747
1269.195	57.329899
1269.347	57.030672
1269.499	57.314648
1269.651	56.425064
1269.803	55.917844
1269.955	55.528032
1270.106	56.119471
1270.258	55.843593
1270.410	56.077291
1270.562	57.197898
1270.713	57.967273
1270.865	58.755107
1271.017	59.164522
1271.168	59.214100
1271.320	59.124823
1271.471	59.556223
1271.623	60.452801
1271.775	61.230695
1271.926	62.112683
1272.078	62.048729
1272.229	62.124607
1272.381	62.376949
1272.532	62.182739
1272.684	60.956288
1272.835	61.417371
1272.986	63.239877
1273.138	64.162323
1273.289	64.279139
1273.440	64.337298
1273.592	63.908350
1273.743	64.148787
1273.894	63.511947
1274.046	62.942840
1274.197	62.883348
1274.348	64.158995
1274.500	64.468284
1274.651	63.613389
1274.802	62.648777
>>>>>>>>>> END of Data <<<<<<<<<<
